34, 1001
John S Holloway
CIRES/NOAA:ESRL;Chemical Sciences Division
CO instrument
SENEX 2013
1, 1
2013, 05, 31, 2013, 06, 01
1
AOCTimewave
1
1
-9999
CO_ppbv
1
computer reboot about 14:19 UTC
18
PI_CONTACT_INFO: Address: NOAA ESRL Chemical Sciences Division, Mail Stop R/CSD7, 325 Broadway, Boulder, CO 80305
PLATFORM: NOAA WP-3D N42RF
LOCATION: Second instr. check flt., MacDill AFB, Tampa, FL. Aircraft location information in AircraftPosition file.
ASSOCIATED_DATA: N/A
INSTRUMENT_INFO: VUV resonance fluorescence
DATA_INFO: Units:ppbv
UNCERTAINTY: 5%
ULOD_FLAG: -7777
ULOD_VALUE: N/A
LLOD_FLAG: -8888
LLOD_VALUE: N/A
DM_CONTACT_INFO: Data Manager:Ken Aikin; email:Kenneth.C.Aikin@noaa.gov
PROJECT_INFO: SENEX 2013 Study; June 1 - July 15, 2013
STIPULATIONS_ON_USE: Use of these data require prior ok from PI.
OTHER_COMMENTS: Second check flight
REVISION: RA
RA: Preliminary Data.  For in-field use.
AOCTimewave, CO_ppbv
51072.0, -9999.00
51073.0, -9999.00
51074.0, -9999.00
51075.0, -9999.00
51076.0, -9999.00
51077.0, -9999.00
51078.0, -9999.00
51079.0, -9999.00
51080.0, -9999.00
51081.0, -9999.00
51082.0, -9999.00
51083.0, -9999.00
51084.0, -9999.00
51085.0, -9999.00
51086.0, -9999.00
51087.0, -9999.00
51088.0, -9999.00
51089.0, -9999.00
51090.0, -9999.00
51091.0, -9999.00
51092.0, -9999.00
51093.0, -9999.00
51094.0, 90.72
51095.0, 93.06
51096.0, 90.59
51097.0, 90.39
51098.0, 91.75
51099.0, 93.20
51100.0, 90.79
51101.0, 88.20
51102.0, 87.29
51103.0, 88.60
51104.0, 88.69
51105.0, 88.17
51106.0, 88.09
51107.0, 88.49
51108.0, 88.95
51109.0, 88.42
51110.0, 88.86
51111.0, 88.22
51112.0, 87.97
51113.0, 87.68
51114.0, 88.05
51115.0, 88.49
51116.0, 87.24
51117.0, 88.27
51118.0, 87.84
51119.0, 87.58
51120.0, 88.99
51121.0, 89.25
51122.0, 88.24
51123.0, 88.15
51124.0, 88.64
51125.0, 89.22
51126.0, 88.55
51127.0, 89.54
51128.0, 89.25
51129.0, 89.54
51130.0, 88.73
51131.0, 89.45
51132.0, 87.70
51133.0, 89.11
51134.0, 87.58
51135.0, 89.33
51136.0, 88.92
51137.0, 88.83
51138.0, 88.71
51139.0, 89.45
51140.0, 87.10
51141.0, 88.80
51142.0, 89.19
51143.0, 88.43
51144.0, 88.43
51145.0, 89.35
51146.0, 88.87
51147.0, 89.23
51148.0, 88.94
51149.0, 88.13
51150.0, 88.37
51151.0, 88.35
51152.0, 88.02
51153.0, 87.91
51154.0, 89.37
51155.0, 88.88
51156.0, 89.18
51157.0, 88.59
51158.0, 89.26
51159.0, 87.84
51160.0, 88.57
51161.0, 88.17
51162.0, 88.51
51163.0, 88.06
51164.0, 89.50
51165.0, 88.25
51166.0, 88.56
51167.0, 89.47
51168.0, 88.92
51169.0, 87.59
51170.0, 87.04
51171.0, 88.53
51172.0, 88.64
51173.0, 87.56
51174.0, 87.41
51175.0, 88.56
51176.0, 87.64
51177.0, 88.28
51178.0, 86.84
51179.0, 87.01
51180.0, 87.46
51181.0, 88.51
51182.0, 88.59
51183.0, 89.25
51184.0, 87.07
51185.0, 87.30
51186.0, 86.33
51187.0, 87.03
51188.0, 87.06
51189.0, 87.50
51190.0, 86.84
51191.0, 86.10
51192.0, 85.60
51193.0, 86.85
51194.0, 87.33
51195.0, 87.56
51196.0, 87.22
51197.0, 88.56
51198.0, 87.55
51199.0, 87.07
51200.0, 88.50
51201.0, 89.92
51202.0, 88.38
51203.0, 89.50
51204.0, 88.43
51205.0, 88.66
51206.0, 87.13
51207.0, 87.51
51208.0, 85.50
51209.0, 85.32
51210.0, 87.24
51211.0, 86.96
51212.0, 85.93
51213.0, 85.11
51214.0, 86.43
51215.0, 84.46
51216.0, 85.55
51217.0, 85.14
51218.0, 85.16
51219.0, 85.95
51220.0, 84.76
51221.0, 85.19
51222.0, 84.90
51223.0, 84.94
51224.0, 85.17
51225.0, 85.42
51226.0, 85.05
51227.0, 85.71
51228.0, 84.89
51229.0, 84.46
51230.0, 85.35
51231.0, 85.39
51232.0, 85.76
51233.0, 85.68
51234.0, 85.87
51235.0, 87.10
51236.0, 85.87
51237.0, 84.86
51238.0, 85.01
51239.0, 83.89
51240.0, 83.77
51241.0, 84.28
51242.0, 84.31
51243.0, 83.42
51244.0, 83.02
51245.0, 84.85
51246.0, 85.10
51247.0, 84.76
51248.0, 83.68
51249.0, 84.36
51250.0, 85.28
51251.0, 85.13
51252.0, 85.15
51253.0, 85.72
51254.0, 85.65
51255.0, 84.14
51256.0, 83.85
51257.0, 84.23
51258.0, 83.99
51259.0, 84.08
51260.0, 82.19
51261.0, 83.90
51262.0, 84.39
51263.0, 84.53
51264.0, 83.67
51265.0, 83.55
51266.0, 83.23
51267.0, 83.56
51268.0, 83.83
51269.0, 83.32
51270.0, 85.43
51271.0, 84.91
51272.0, 84.22
51273.0, 84.11
51274.0, 83.10
51275.0, 83.71
51276.0, 84.82
51277.0, 83.76
51278.0, 83.00
51279.0, 84.28
51280.0, 83.00
51281.0, 84.93
51282.0, 84.05
51283.0, 83.64
51284.0, 83.80
51285.0, 85.41
51286.0, 85.65
51287.0, 84.53
51288.0, 83.76
51289.0, 83.47
51290.0, 84.36
51291.0, 84.89
51292.0, 84.06
51293.0, 84.68
51294.0, 85.44
51295.0, 85.40
51296.0, 85.69
51297.0, 84.92
51298.0, 84.66
51299.0, 85.16
51300.0, 85.33
51301.0, 85.00
51302.0, 84.30
51303.0, 85.54
51304.0, 84.62
51305.0, 85.19
51306.0, 84.97
51307.0, 84.96
51308.0, 84.42
51309.0, 85.51
51310.0, 85.42
51311.0, 85.29
51312.0, 85.38
51313.0, 85.20
51314.0, 84.45
51315.0, 84.86
51316.0, 84.83
51317.0, 85.65
51318.0, 84.67
51319.0, 85.37
51320.0, 83.99
51321.0, 84.29
51322.0, 84.77
51323.0, 85.20
51324.0, 84.19
51325.0, 85.48
51326.0, 84.67
51327.0, 84.18
51328.0, 85.60
51329.0, 86.48
51330.0, 86.42
51331.0, 85.35
51332.0, 84.49
51333.0, 84.99
51334.0, 85.51
51335.0, 84.25
51336.0, 84.62
51337.0, 84.87
51338.0, 84.41
51339.0, 84.69
51340.0, 85.11
51341.0, 84.83
51342.0, 85.49
51343.0, 84.29
51344.0, 84.14
51345.0, 85.22
51346.0, 85.30
51347.0, 85.28
51348.0, 85.24
51349.0, 85.34
51350.0, 85.66
51351.0, 84.65
51352.0, 85.40
51353.0, 84.50
51354.0, 85.08
51355.0, 84.35
51356.0, 85.34
51357.0, 85.06
51358.0, 84.46
51359.0, 84.29
51360.0, 85.41
51361.0, 84.80
51362.0, 84.50
51363.0, 84.68
51364.0, 84.69
51365.0, 85.10
51366.0, 84.71
51367.0, 84.63
51368.0, 85.00
51369.0, 85.82
51370.0, 84.16
51371.0, 83.98
51372.0, 84.50
51373.0, 84.71
51374.0, 84.62
51375.0, 84.58
51376.0, 86.20
51377.0, 85.14
51378.0, 84.03
51379.0, 84.45
51380.0, 85.28
51381.0, 84.91
51382.0, 84.55
51383.0, 85.24
51384.0, 84.02
51385.0, 84.47
51386.0, 84.46
51387.0, 85.02
51388.0, 83.78
51389.0, 84.47
51390.0, 84.48
51391.0, 85.42
51392.0, 84.43
51393.0, 85.31
51394.0, 84.16
51395.0, 84.05
51396.0, 85.05
51397.0, 84.69
51398.0, 84.06
51399.0, 84.31
51400.0, 85.28
51401.0, 84.38
51402.0, 84.38
51403.0, 84.32
51404.0, 84.16
51405.0, 84.20
51406.0, 83.64
51407.0, 84.26
51408.0, 85.34
51409.0, 84.89
51410.0, 84.38
51411.0, 84.89
51412.0, 84.80
51413.0, 85.27
51414.0, 84.67
51415.0, 83.86
51416.0, 84.10
51417.0, 84.59
51418.0, 84.34
51419.0, 86.34
51420.0, 85.50
51421.0, 85.88
51422.0, 84.78
51423.0, 84.60
51424.0, 84.88
51425.0, 83.86
51426.0, 83.56
51427.0, 84.43
51428.0, 85.30
51429.0, 84.55
51430.0, 84.94
51431.0, 84.82
51432.0, 87.65
51433.0, 89.29
51434.0, 91.11
51435.0, 90.52
51436.0, 91.35
51437.0, 91.18
51438.0, 90.91
51439.0, 91.13
51440.0, 90.90
51441.0, 91.72
51442.0, 91.27
51443.0, 91.61
51444.0, 90.30
51445.0, 91.53
51446.0, 91.38
51447.0, 90.34
51448.0, 91.46
51449.0, 90.43
51450.0, 91.06
51451.0, 90.93
51452.0, 91.24
51453.0, 91.16
51454.0, 91.73
51455.0, 91.24
51456.0, 90.57
51457.0, 92.00
51458.0, 90.19
51459.0, 91.36
51460.0, 91.68
51461.0, 91.03
51462.0, 91.82
51463.0, 91.62
51464.0, 91.48
51465.0, 92.39
51466.0, 91.54
51467.0, 90.35
51468.0, 90.84
51469.0, 90.46
51470.0, 90.78
51471.0, 90.49
51472.0, 90.77
51473.0, 91.28
51474.0, 91.28
51475.0, 89.87
51476.0, 89.98
51477.0, 87.91
51478.0, 88.89
51479.0, 88.25
51480.0, 87.54
51481.0, 88.42
51482.0, 86.50
51483.0, 84.22
51484.0, 83.76
51485.0, 82.59
51486.0, 82.57
51487.0, 82.27
51488.0, 83.34
51489.0, 82.36
51490.0, 82.97
51491.0, 82.07
51492.0, 83.11
51493.0, 81.99
51494.0, 81.71
51495.0, 81.40
51496.0, 81.13
51497.0, 81.68
51498.0, 82.17
51499.0, 81.97
51500.0, 82.39
51501.0, 81.87
51502.0, 81.75
51503.0, 81.61
51504.0, 82.42
51505.0, 81.65
51506.0, 81.73
51507.0, 82.55
51508.0, 82.09
51509.0, 82.42
51510.0, 82.39
51511.0, 81.97
51512.0, 81.38
51513.0, 81.83
51514.0, 82.94
51515.0, 81.73
51516.0, 81.81
51517.0, 82.41
51518.0, 82.54
51519.0, 82.23
51520.0, 82.57
51521.0, 82.85
51522.0, -9999.00
51523.0, -9999.00
51524.0, -9999.00
51525.0, -9999.00
51526.0, -9999.00
51527.0, -9999.00
51528.0, -9999.00
51529.0, -9999.00
51530.0, -9999.00
51531.0, -9999.00
51532.0, -9999.00
51533.0, -9999.00
51534.0, -9999.00
51535.0, -9999.00
51536.0, -9999.00
51537.0, -9999.00
51538.0, -9999.00
51539.0, -9999.00
51540.0, -9999.00
51541.0, -9999.00
51542.0, -9999.00
51543.0, -9999.00
51544.0, -9999.00
51545.0, -9999.00
51546.0, -9999.00
51547.0, -9999.00
51548.0, -9999.00
51549.0, -9999.00
51550.0, -9999.00
51551.0, -9999.00
51552.0, -9999.00
51553.0, -9999.00
51554.0, -9999.00
51555.0, -9999.00
51556.0, -9999.00
51557.0, -9999.00
51558.0, -9999.00
51559.0, -9999.00
51560.0, -9999.00
51561.0, -9999.00
51562.0, -9999.00
51563.0, -9999.00
51564.0, -9999.00
51565.0, -9999.00
51566.0, -9999.00
51567.0, -9999.00
51568.0, -9999.00
51569.0, -9999.00
51570.0, -9999.00
51571.0, -9999.00
51572.0, -9999.00
51573.0, -9999.00
51574.0, -9999.00
51575.0, -9999.00
51576.0, -9999.00
51577.0, -9999.00
51578.0, -9999.00
51579.0, -9999.00
51580.0, -9999.00
51581.0, -9999.00
51582.0, -9999.00
51583.0, -9999.00
51584.0, -9999.00
51585.0, -9999.00
51586.0, -9999.00
51587.0, -9999.00
51588.0, -9999.00
51589.0, -9999.00
51590.0, -9999.00
51591.0, -9999.00
51592.0, -9999.00
51593.0, -9999.00
51594.0, -9999.00
51595.0, 83.68
51596.0, -9999.00
51597.0, 82.26
51598.0, 81.90
51599.0, 82.76
51600.0, 83.22
51601.0, -9999.00
51602.0, -9999.00
51603.0, -9999.00
51604.0, -9999.00
51605.0, -9999.00
51606.0, -9999.00
51607.0, -9999.00
51608.0, -9999.00
51609.0, -9999.00
51610.0, -9999.00
51611.0, -9999.00
51612.0, -9999.00
51613.0, -9999.00
51614.0, -9999.00
51615.0, -9999.00
51616.0, -9999.00
51617.0, -9999.00
51618.0, -9999.00
51619.0, -9999.00
51620.0, -9999.00
51621.0, -9999.00
51622.0, -9999.00
51623.0, -9999.00
51624.0, -9999.00
51625.0, -9999.00
51626.0, -9999.00
51627.0, -9999.00
51628.0, -9999.00
51629.0, -9999.00
51630.0, -9999.00
51631.0, -9999.00
51632.0, -9999.00
51633.0, -9999.00
51634.0, -9999.00
51635.0, -9999.00
51636.0, -9999.00
51637.0, -9999.00
51638.0, -9999.00
51639.0, -9999.00
51640.0, -9999.00
51641.0, -9999.00
51642.0, -9999.00
51643.0, -9999.00
51644.0, -9999.00
51645.0, -9999.00
51646.0, -9999.00
51647.0, -9999.00
51648.0, -9999.00
51649.0, -9999.00
51650.0, -9999.00
51651.0, -9999.00
51652.0, -9999.00
51653.0, -9999.00
51654.0, -9999.00
51655.0, -9999.00
51656.0, -9999.00
51657.0, -9999.00
51658.0, -9999.00
51659.0, -9999.00
51660.0, -9999.00
51661.0, -9999.00
51662.0, -9999.00
51663.0, -9999.00
51664.0, -9999.00
51665.0, -9999.00
51666.0, -9999.00
51667.0, -9999.00
51668.0, -9999.00
51669.0, -9999.00
51670.0, -9999.00
51671.0, -9999.00
51672.0, -9999.00
51673.0, -9999.00
51674.0, -9999.00
51675.0, -9999.00
51676.0, -9999.00
51677.0, -9999.00
51678.0, -9999.00
51679.0, -9999.00
51680.0, -9999.00
51681.0, -9999.00
51682.0, -9999.00
51683.0, -9999.00
51684.0, -9999.00
51685.0, -9999.00
51686.0, -9999.00
51687.0, -9999.00
51688.0, -9999.00
51689.0, -9999.00
51690.0, -9999.00
51691.0, -9999.00
51692.0, -9999.00
51693.0, -9999.00
51694.0, -9999.00
51695.0, -9999.00
51696.0, -9999.00
51697.0, -9999.00
51698.0, -9999.00
51699.0, -9999.00
51700.0, -9999.00
51701.0, -9999.00
51702.0, -9999.00
51703.0, -9999.00
51704.0, -9999.00
51705.0, -9999.00
51706.0, -9999.00
51707.0, -9999.00
51708.0, -9999.00
51709.0, -9999.00
51710.0, -9999.00
51711.0, -9999.00
51712.0, -9999.00
51713.0, 92.46
51714.0, 93.96
51715.0, 94.02
51716.0, 94.18
51717.0, 94.83
51718.0, 93.06
51719.0, 93.85
51720.0, 94.76
51721.0, 93.34
51722.0, 93.98
51723.0, 92.73
51724.0, 93.06
51725.0, 93.87
51726.0, 93.67
51727.0, 93.32
51728.0, 94.49
51729.0, 94.80
51730.0, 94.71
51731.0, 94.60
51732.0, 94.97
51733.0, 93.53
51734.0, 94.40
51735.0, 94.43
51736.0, 94.47
51737.0, 94.30
51738.0, 94.11
51739.0, 94.42
51740.0, 93.49
51741.0, 93.93
51742.0, 93.87
51743.0, 94.27
51744.0, 94.11
51745.0, 94.62
51746.0, 93.78
51747.0, 94.94
51748.0, 94.68
51749.0, 94.51
51750.0, 94.98
51751.0, 93.67
51752.0, 93.95
51753.0, 93.40
51754.0, 93.51
51755.0, 93.51
51756.0, 94.04
51757.0, 93.48
51758.0, 94.69
51759.0, 95.33
51760.0, 94.48
51761.0, 93.62
51762.0, 94.59
51763.0, 95.09
51764.0, 94.84
51765.0, 94.64
51766.0, 95.31
51767.0, 94.58
51768.0, 94.17
51769.0, 94.67
51770.0, 94.55
51771.0, 94.67
51772.0, 94.60
51773.0, 93.65
51774.0, 94.26
51775.0, 95.31
51776.0, 95.53
51777.0, 95.06
51778.0, 94.21
51779.0, 93.49
51780.0, 94.29
51781.0, 94.46
51782.0, 94.51
51783.0, 94.85
51784.0, 94.47
51785.0, 94.73
51786.0, 94.03
51787.0, 94.73
51788.0, 93.95
51789.0, 92.56
51790.0, 94.89
51791.0, 94.75
51792.0, 93.24
51793.0, 93.51
51794.0, 95.09
51795.0, 94.43
51796.0, 94.47
51797.0, 93.42
51798.0, 93.68
51799.0, 94.19
51800.0, 93.75
51801.0, 94.06
51802.0, 94.34
51803.0, 94.75
51804.0, 94.38
51805.0, 94.62
51806.0, 94.13
51807.0, 94.04
51808.0, 94.96
51809.0, 94.97
51810.0, 95.58
51811.0, 94.97
51812.0, 94.00
51813.0, 93.91
51814.0, 93.86
51815.0, 94.81
51816.0, 95.55
51817.0, 95.26
51818.0, 94.43
51819.0, 95.03
51820.0, 94.38
51821.0, 94.69
51822.0, 95.31
51823.0, 93.42
51824.0, 94.45
51825.0, 95.34
51826.0, 94.58
51827.0, 94.94
51828.0, 95.74
51829.0, 94.55
51830.0, 95.16
51831.0, 94.40
51832.0, 95.51
51833.0, 94.79
51834.0, 94.63
51835.0, 95.20
51836.0, 94.31
51837.0, 95.03
51838.0, 94.36
51839.0, 94.81
51840.0, 94.21
51841.0, 94.98
51842.0, 94.46
51843.0, 94.67
51844.0, 94.97
51845.0, 94.75
51846.0, 94.18
51847.0, 94.89
51848.0, 95.02
51849.0, 94.23
51850.0, 95.43
51851.0, 94.82
51852.0, 95.45
51853.0, 94.09
51854.0, 94.47
51855.0, 94.12
51856.0, 94.69
51857.0, 93.96
51858.0, 94.62
51859.0, 95.09
51860.0, 94.26
51861.0, 94.56
51862.0, 94.16
51863.0, 94.67
51864.0, 94.18
51865.0, 94.33
51866.0, 94.96
51867.0, 93.22
51868.0, 94.35
51869.0, 93.85
51870.0, 93.54
51871.0, 94.31
51872.0, 94.28
51873.0, 93.29
51874.0, 93.52
51875.0, 94.12
51876.0, 95.04
51877.0, 94.60
51878.0, 94.79
51879.0, 94.26
51880.0, 94.64
51881.0, 94.95
51882.0, 94.25
51883.0, 94.04
51884.0, 94.43
51885.0, 94.17
51886.0, 93.68
51887.0, 94.25
51888.0, 94.71
51889.0, 93.96
51890.0, 93.50
51891.0, 93.93
51892.0, 94.68
51893.0, 93.37
51894.0, 94.83
51895.0, 94.05
51896.0, 95.11
51897.0, 93.93
51898.0, 94.72
51899.0, 93.57
51900.0, 94.12
51901.0, 94.40
51902.0, 94.72
51903.0, 94.54
51904.0, 94.24
51905.0, 95.07
51906.0, 92.94
51907.0, 94.47
51908.0, 93.79
51909.0, 94.74
51910.0, 93.89
51911.0, 94.89
51912.0, 93.03
51913.0, 95.34
51914.0, 94.68
51915.0, 94.67
51916.0, 94.13
51917.0, 94.83
51918.0, 93.99
51919.0, 94.73
51920.0, 93.99
51921.0, 94.77
51922.0, 94.70
51923.0, 94.02
51924.0, 94.49
51925.0, 94.52
51926.0, 95.11
51927.0, 93.95
51928.0, 93.85
51929.0, 94.02
51930.0, 93.62
51931.0, 94.07
51932.0, 93.29
51933.0, 93.17
51934.0, 93.63
51935.0, 93.22
51936.0, 94.10
51937.0, 93.83
51938.0, 94.57
51939.0, 93.95
51940.0, 93.76
51941.0, 94.88
51942.0, 94.98
51943.0, 94.48
51944.0, 93.93
51945.0, 94.24
51946.0, 93.26
51947.0, 93.71
51948.0, 94.06
51949.0, 93.88
51950.0, 93.37
51951.0, 93.65
51952.0, 94.02
51953.0, 93.29
51954.0, 93.34
51955.0, 93.28
51956.0, 93.75
51957.0, 93.06
51958.0, 93.16
51959.0, 92.90
51960.0, 92.09
51961.0, 93.48
51962.0, 92.95
51963.0, 92.63
51964.0, 93.86
51965.0, 93.35
51966.0, 92.97
51967.0, 92.92
51968.0, 93.31
51969.0, 91.98
51970.0, 92.87
51971.0, 92.61
51972.0, 93.40
51973.0, 93.54
51974.0, 92.91
51975.0, 93.51
51976.0, 93.18
51977.0, 93.24
51978.0, 92.99
51979.0, 93.49
51980.0, 93.52
51981.0, 92.60
51982.0, 93.26
51983.0, 93.17
51984.0, 92.55
51985.0, 92.84
51986.0, 93.25
51987.0, 92.12
51988.0, 93.07
51989.0, 93.47
51990.0, 92.90
51991.0, 93.45
51992.0, 92.58
51993.0, 92.88
51994.0, 93.22
51995.0, 93.51
51996.0, 93.62
51997.0, 113.01
51998.0, 99.20
51999.0, 94.45
52000.0, 93.20
52001.0, 93.16
52002.0, 93.36
52003.0, 92.99
52004.0, 93.63
52005.0, 93.34
52006.0, 93.08
52007.0, 93.32
52008.0, 94.01
52009.0, 93.94
52010.0, 96.18
52011.0, 95.13
52012.0, 94.21
52013.0, 93.93
52014.0, 93.13
52015.0, 93.32
52016.0, 93.02
52017.0, 93.11
52018.0, 93.25
52019.0, 93.31
52020.0, 94.74
52021.0, 93.92
52022.0, 93.17
52023.0, 92.64
52024.0, 93.64
52025.0, 92.64
52026.0, 93.55
52027.0, 94.01
52028.0, 93.93
52029.0, 93.24
52030.0, 93.23
52031.0, 94.31
52032.0, 93.38
52033.0, 92.75
52034.0, 93.32
52035.0, 94.25
52036.0, 94.02
52037.0, 94.06
52038.0, 93.54
52039.0, 92.75
52040.0, 93.69
52041.0, 93.76
52042.0, 93.72
52043.0, 94.12
52044.0, 93.73
52045.0, 94.25
52046.0, 94.36
52047.0, 93.90
52048.0, 93.36
52049.0, 94.28
52050.0, 95.00
52051.0, 94.13
52052.0, 93.52
52053.0, 94.72
52054.0, 93.69
52055.0, 94.67
52056.0, 94.94
52057.0, 94.40
52058.0, 94.39
52059.0, 94.49
52060.0, 95.14
52061.0, 94.70
52062.0, 94.21
52063.0, 94.53
52064.0, 95.23
52065.0, 95.27
52066.0, 94.73
52067.0, 95.16
52068.0, 94.71
52069.0, 95.06
52070.0, 95.32
52071.0, 95.41
52072.0, 94.33
52073.0, 94.47
52074.0, 94.42
52075.0, 94.97
52076.0, 93.52
52077.0, 95.13
52078.0, 94.51
52079.0, 95.77
52080.0, 94.66
52081.0, 95.41
52082.0, 95.08
52083.0, 96.08
52084.0, 96.51
52085.0, 94.81
52086.0, 95.55
52087.0, 94.14
52088.0, 94.60
52089.0, 94.63
52090.0, 96.29
52091.0, 95.59
52092.0, 95.16
52093.0, 95.46
52094.0, 95.26
52095.0, 95.34
52096.0, 94.94
52097.0, 94.08
52098.0, 93.28
52099.0, 94.67
52100.0, 94.87
52101.0, 94.69
52102.0, 93.88
52103.0, 93.73
52104.0, 93.94
52105.0, 93.92
52106.0, 93.36
52107.0, 93.96
52108.0, 93.34
52109.0, 93.89
52110.0, 93.83
52111.0, 94.51
52112.0, 93.90
52113.0, 93.55
52114.0, 93.63
52115.0, 93.29
52116.0, 93.52
52117.0, 91.98
52118.0, 92.63
52119.0, 93.70
52120.0, 94.32
52121.0, 94.65
52122.0, 93.40
52123.0, 94.02
52124.0, 92.77
52125.0, 93.48
52126.0, 93.49
52127.0, 94.06
52128.0, 93.82
52129.0, 93.44
52130.0, 93.57
52131.0, 93.91
52132.0, 93.89
52133.0, 94.24
52134.0, 93.69
52135.0, 93.06
52136.0, 93.65
52137.0, 93.64
52138.0, 93.42
52139.0, 93.96
52140.0, 93.71
52141.0, 94.41
52142.0, 92.28
52143.0, 93.36
52144.0, 94.26
52145.0, 93.37
52146.0, 94.34
52147.0, 94.20
52148.0, 94.47
52149.0, 93.26
52150.0, 93.39
52151.0, 93.75
52152.0, 94.93
52153.0, 94.32
52154.0, 93.96
52155.0, 93.33
52156.0, 93.44
52157.0, 92.77
52158.0, 93.63
52159.0, 92.48
52160.0, 93.48
52161.0, 92.98
52162.0, 93.87
52163.0, 93.21
52164.0, 93.47
52165.0, 92.59
52166.0, 92.81
52167.0, 93.21
52168.0, 93.75
52169.0, 93.19
52170.0, 94.07
52171.0, 94.52
52172.0, 93.95
52173.0, 93.39
52174.0, 94.01
52175.0, 92.68
52176.0, 93.10
52177.0, 92.40
52178.0, 92.86
52179.0, 93.10
52180.0, 93.56
52181.0, 93.01
52182.0, 93.01
52183.0, 93.51
52184.0, 94.29
52185.0, 93.11
52186.0, 93.68
52187.0, 92.93
52188.0, 93.91
52189.0, 93.31
52190.0, 93.66
52191.0, 94.08
52192.0, 93.92
52193.0, 92.94
52194.0, 93.37
52195.0, 93.47
52196.0, 93.63
52197.0, 93.60
52198.0, 93.15
52199.0, 94.32
52200.0, 92.38
52201.0, 93.65
52202.0, 92.46
52203.0, 92.44
52204.0, 92.62
52205.0, 93.22
52206.0, 92.54
52207.0, 93.44
52208.0, 93.41
52209.0, 92.78
52210.0, 92.10
52211.0, 92.83
52212.0, 92.74
52213.0, 93.14
52214.0, 93.17
52215.0, 92.99
52216.0, 92.71
52217.0, 93.88
52218.0, 92.42
52219.0, 93.37
52220.0, 92.85
52221.0, 92.44
52222.0, 92.82
52223.0, 91.84
52224.0, 92.30
52225.0, 92.75
52226.0, 92.12
52227.0, 92.34
52228.0, 93.49
52229.0, 92.23
52230.0, 92.79
52231.0, 93.11
52232.0, 93.12
52233.0, 92.44
52234.0, 93.14
52235.0, 92.93
52236.0, 92.32
52237.0, 92.61
52238.0, 93.09
52239.0, 93.05
52240.0, 93.16
52241.0, 92.73
52242.0, 93.21
52243.0, 93.71
52244.0, 93.42
52245.0, 92.80
52246.0, 93.20
52247.0, 93.28
52248.0, 92.62
52249.0, 92.47
52250.0, 92.57
52251.0, 92.47
52252.0, 93.77
52253.0, 92.85
52254.0, 92.70
52255.0, 92.35
52256.0, 93.21
52257.0, 92.96
52258.0, 93.71
52259.0, 93.82
52260.0, 93.74
52261.0, 92.05
52262.0, 92.62
52263.0, 92.50
52264.0, 93.45
52265.0, 93.58
52266.0, 92.74
52267.0, 93.10
52268.0, 93.04
52269.0, 93.05
52270.0, 93.47
52271.0, 92.91
52272.0, 93.22
52273.0, 93.22
52274.0, 93.69
52275.0, 93.00
52276.0, 93.12
52277.0, 94.01
52278.0, 93.95
52279.0, 93.28
52280.0, 92.82
52281.0, 93.01
52282.0, 93.38
52283.0, 92.69
52284.0, 93.29
52285.0, 93.99
52286.0, 93.52
52287.0, 93.13
52288.0, 94.19
52289.0, 94.07
52290.0, 94.21
52291.0, 93.57
52292.0, 93.56
52293.0, 93.72
52294.0, 94.43
52295.0, 93.84
52296.0, 93.87
52297.0, 93.98
52298.0, 93.20
52299.0, 92.93
52300.0, 94.01
52301.0, 93.12
52302.0, 93.34
52303.0, 92.99
52304.0, 93.07
52305.0, 93.80
52306.0, 93.37
52307.0, 93.31
52308.0, 93.06
52309.0, 92.92
52310.0, 94.47
52311.0, 92.68
52312.0, 92.99
52313.0, 94.05
52314.0, -9999.00
52315.0, -9999.00
52316.0, -9999.00
52317.0, -9999.00
52318.0, -9999.00
52319.0, -9999.00
52320.0, -9999.00
52321.0, -9999.00
52322.0, -9999.00
52323.0, -9999.00
52324.0, -9999.00
52325.0, -9999.00
52326.0, -9999.00
52327.0, -9999.00
52328.0, -9999.00
52329.0, -9999.00
52330.0, -9999.00
52331.0, -9999.00
52332.0, -9999.00
52333.0, -9999.00
52334.0, -9999.00
52335.0, -9999.00
52336.0, -9999.00
52337.0, -9999.00
52338.0, -9999.00
52339.0, -9999.00
52340.0, 92.87
52341.0, 93.23
52342.0, 93.43
52343.0, 92.08
52344.0, 93.93
52345.0, 93.55
52346.0, 93.35
52347.0, 93.61
52348.0, 94.61
52349.0, 92.97
52350.0, 92.21
52351.0, 93.95
52352.0, 92.75
52353.0, 93.02
52354.0, -9999.00
52355.0, -9999.00
52356.0, -9999.00
52357.0, -9999.00
52358.0, -9999.00
52359.0, -9999.00
52360.0, -9999.00
52361.0, -9999.00
52362.0, -9999.00
52363.0, -9999.00
52364.0, -9999.00
52365.0, -9999.00
52366.0, -9999.00
52367.0, -9999.00
52368.0, -9999.00
52369.0, -9999.00
52370.0, -9999.00
52371.0, -9999.00
52372.0, -9999.00
52373.0, -9999.00
52374.0, -9999.00
52375.0, -9999.00
52376.0, -9999.00
52377.0, -9999.00
52378.0, -9999.00
52379.0, -9999.00
52380.0, -9999.00
52381.0, -9999.00
52382.0, -9999.00
52383.0, -9999.00
52384.0, 93.90
52385.0, 93.75
52386.0, 95.06
52387.0, 94.43
52388.0, 94.21
52389.0, 93.83
52390.0, 94.16
52391.0, 94.45
52392.0, 94.53
52393.0, 93.73
52394.0, 94.11
52395.0, 93.51
52396.0, 94.55
52397.0, 93.82
52398.0, 93.61
52399.0, 93.17
52400.0, 94.17
52401.0, 93.29
52402.0, 93.43
52403.0, 94.39
52404.0, 93.71
52405.0, 94.08
52406.0, 93.30
52407.0, 94.18
52408.0, 94.36
52409.0, 94.68
52410.0, 93.67
52411.0, 93.72
52412.0, 94.28
52413.0, 95.13
52414.0, 94.53
52415.0, 94.60
52416.0, 94.16
52417.0, 93.62
52418.0, 93.45
52419.0, 93.77
52420.0, 94.40
52421.0, 93.85
52422.0, 93.92
52423.0, 93.10
52424.0, 94.19
52425.0, 93.91
52426.0, 93.35
52427.0, 93.61
52428.0, 93.97
52429.0, 93.75
52430.0, 94.11
52431.0, 94.84
52432.0, 94.16
52433.0, 94.09
52434.0, 94.59
52435.0, 93.49
52436.0, 94.92
52437.0, 93.43
52438.0, 94.96
52439.0, 94.08
52440.0, 94.11
52441.0, 94.38
52442.0, 93.48
52443.0, 94.13
52444.0, 94.68
52445.0, 94.16
52446.0, 93.31
52447.0, 95.35
52448.0, 94.65
52449.0, 94.59
52450.0, 93.73
52451.0, 93.76
52452.0, 93.59
52453.0, 94.41
52454.0, 94.57
52455.0, 94.11
52456.0, 94.04
52457.0, 93.25
52458.0, 94.26
52459.0, 93.74
52460.0, 94.11
52461.0, 94.30
52462.0, 94.18
52463.0, 94.83
52464.0, 94.30
52465.0, 95.04
52466.0, 95.79
52467.0, 94.95
52468.0, 94.39
52469.0, 93.51
52470.0, 93.79
52471.0, 94.91
52472.0, 94.33
52473.0, 94.46
52474.0, 93.90
52475.0, 94.54
52476.0, 94.69
52477.0, 94.66
52478.0, 93.35
52479.0, 93.79
52480.0, 94.92
52481.0, 93.54
52482.0, 93.56
52483.0, 93.91
52484.0, 95.83
52485.0, 93.67
52486.0, 94.75
52487.0, 94.72
52488.0, 94.38
52489.0, 95.01
52490.0, 94.36
52491.0, 94.96
52492.0, 93.57
52493.0, 93.86
52494.0, 94.73
52495.0, 94.09
52496.0, 93.73
52497.0, 94.98
52498.0, 94.85
52499.0, 94.39
52500.0, 94.46
52501.0, 95.66
52502.0, 94.33
52503.0, 94.22
52504.0, 94.80
52505.0, 94.58
52506.0, 93.75
52507.0, 94.57
52508.0, 94.55
52509.0, 94.58
52510.0, 93.84
52511.0, 94.15
52512.0, 93.17
52513.0, 95.06
52514.0, 93.46
52515.0, 94.88
52516.0, 94.91
52517.0, 93.68
52518.0, 94.47
52519.0, 93.36
52520.0, 93.97
52521.0, 94.49
52522.0, 93.81
52523.0, 94.38
52524.0, 94.62
52525.0, 93.72
52526.0, 93.90
52527.0, 94.34
52528.0, 94.32
52529.0, 94.20
52530.0, 94.02
52531.0, 94.29
52532.0, 94.00
52533.0, 94.00
52534.0, 94.36
52535.0, 94.09
52536.0, 94.76
52537.0, 95.23
52538.0, 94.77
52539.0, 94.19
52540.0, 94.65
52541.0, 93.65
52542.0, 94.84
52543.0, 94.95
52544.0, 94.45
52545.0, 94.98
52546.0, 93.93
52547.0, 95.63
52548.0, 95.52
52549.0, 94.18
52550.0, 93.59
52551.0, 94.83
52552.0, 95.50
52553.0, 94.89
52554.0, 93.93
52555.0, 94.18
52556.0, 93.29
52557.0, 94.42
52558.0, 94.06
52559.0, 94.25
52560.0, 94.70
52561.0, 94.34
52562.0, 94.45
52563.0, 94.67
52564.0, 94.11
52565.0, 94.58
52566.0, 94.02
52567.0, 94.72
52568.0, 93.85
52569.0, 94.27
52570.0, 94.10
52571.0, 93.73
52572.0, 95.01
52573.0, 94.57
52574.0, 94.44
52575.0, 94.11
52576.0, 95.11
52577.0, 93.90
52578.0, 94.58
52579.0, 94.88
52580.0, 93.88
52581.0, 94.02
52582.0, 94.79
52583.0, 95.05
52584.0, 94.09
52585.0, 94.69
52586.0, 94.85
52587.0, 94.62
52588.0, 94.50
52589.0, 94.92
52590.0, 94.40
52591.0, 95.38
52592.0, 94.27
52593.0, 95.29
52594.0, 94.67
52595.0, 94.97
52596.0, 93.66
52597.0, 94.93
52598.0, 94.84
52599.0, 95.81
52600.0, 95.09
52601.0, 94.07
52602.0, 94.44
52603.0, 94.59
52604.0, 93.97
52605.0, 95.02
52606.0, 94.30
52607.0, 95.02
52608.0, 94.66
52609.0, 94.84
52610.0, 94.92
52611.0, 94.74
52612.0, 95.15
52613.0, 94.31
52614.0, 93.69
52615.0, 94.53
52616.0, 95.06
52617.0, 95.22
52618.0, 94.67
52619.0, 95.27
52620.0, 94.03
52621.0, 94.18
52622.0, 94.08
52623.0, 94.45
52624.0, 95.40
52625.0, 94.92
52626.0, 95.52
52627.0, 95.59
52628.0, 95.65
52629.0, 95.96
52630.0, 94.85
52631.0, 95.03
52632.0, 95.60
52633.0, 95.16
52634.0, 95.21
52635.0, 96.31
52636.0, 95.47
52637.0, 95.23
52638.0, 95.69
52639.0, 95.67
52640.0, 95.25
52641.0, 95.74
52642.0, 95.47
52643.0, 95.44
52644.0, 95.85
52645.0, 95.55
52646.0, 95.21
52647.0, 95.25
52648.0, 95.26
52649.0, 95.60
52650.0, 95.43
52651.0, 95.85
52652.0, 95.07
52653.0, 95.71
52654.0, 96.16
52655.0, 95.72
52656.0, 95.83
52657.0, 95.37
52658.0, 95.03
52659.0, 96.34
52660.0, 96.49
52661.0, 96.41
52662.0, 96.18
52663.0, 96.41
52664.0, 95.31
52665.0, 95.72
52666.0, 95.71
52667.0, 96.00
52668.0, 95.39
52669.0, 94.85
52670.0, 96.23
52671.0, 95.77
52672.0, 94.76
52673.0, 95.62
52674.0, 95.96
52675.0, 94.85
52676.0, 94.92
52677.0, 95.40
52678.0, 95.04
52679.0, 95.72
52680.0, 95.46
52681.0, 93.82
52682.0, 95.09
52683.0, 96.68
52684.0, 95.72
52685.0, 95.46
52686.0, 95.53
52687.0, 95.90
52688.0, 95.24
52689.0, 95.50
52690.0, 95.74
52691.0, 94.93
52692.0, 94.85
52693.0, 96.31
52694.0, 95.59
52695.0, 95.84
52696.0, 94.97
52697.0, 95.17
52698.0, 94.93
52699.0, 94.58
52700.0, 94.57
52701.0, 95.10
52702.0, 94.46
52703.0, 95.45
52704.0, 94.92
52705.0, 95.36
52706.0, 95.36
52707.0, 94.91
52708.0, 95.13
52709.0, 95.57
52710.0, 95.91
52711.0, 95.52
52712.0, 95.38
52713.0, 95.61
52714.0, 96.00
52715.0, 96.44
52716.0, 94.90
52717.0, 94.89
52718.0, 95.72
52719.0, 96.84
52720.0, 95.59
52721.0, 95.80
52722.0, 95.39
52723.0, 95.65
52724.0, 96.01
52725.0, 95.69
52726.0, 96.60
52727.0, 95.58
52728.0, 95.76
52729.0, 95.50
52730.0, 95.41
52731.0, 95.03
52732.0, 95.30
52733.0, 96.54
52734.0, 95.42
52735.0, 95.94
52736.0, 95.63
52737.0, 96.28
52738.0, 96.02
52739.0, 95.29
52740.0, 94.73
52741.0, 95.90
52742.0, 94.61
52743.0, 96.75
52744.0, 95.16
52745.0, 95.26
52746.0, 95.44
52747.0, 95.92
52748.0, 96.04
52749.0, 95.36
52750.0, 95.51
52751.0, 95.42
52752.0, 96.14
52753.0, 95.53
52754.0, 95.99
52755.0, 96.62
52756.0, 96.17
52757.0, 95.14
52758.0, 96.93
52759.0, 96.21
52760.0, 96.33
52761.0, 96.16
52762.0, 95.53
52763.0, 95.75
52764.0, 95.16
52765.0, 95.43
52766.0, 95.23
52767.0, 96.13
52768.0, 96.00
52769.0, 95.95
52770.0, 96.64
52771.0, 95.75
52772.0, 96.84
52773.0, 95.62
52774.0, 96.95
52775.0, 95.64
52776.0, 96.37
52777.0, 96.33
52778.0, 96.12
52779.0, 97.03
52780.0, 96.43
52781.0, 96.82
52782.0, 99.13
52783.0, 99.61
52784.0, 101.25
52785.0, 102.06
52786.0, 101.09
52787.0, 97.02
52788.0, 93.91
52789.0, 95.00
52790.0, 97.33
52791.0, 101.30
52792.0, 104.09
52793.0, 103.59
52794.0, 103.25
52795.0, 103.70
52796.0, 102.99
52797.0, 104.26
52798.0, 102.48
52799.0, 103.02
52800.0, 101.51
52801.0, 102.08
52802.0, 103.28
52803.0, 102.20
52804.0, 100.35
52805.0, 101.30
52806.0, 100.92
52807.0, 101.42
52808.0, 101.53
52809.0, 102.09
52810.0, 101.84
52811.0, 100.88
52812.0, 101.35
52813.0, 102.83
52814.0, 101.01
52815.0, 100.82
52816.0, 100.59
52817.0, 100.46
52818.0, 96.61
52819.0, 93.55
52820.0, 94.63
52821.0, 94.33
52822.0, 93.95
52823.0, 93.28
52824.0, 91.60
52825.0, 90.78
52826.0, 91.91
52827.0, 90.56
52828.0, 90.91
52829.0, 89.70
52830.0, 90.03
52831.0, 89.80
52832.0, 90.95
52833.0, 91.21
52834.0, 91.01
52835.0, 90.90
52836.0, 91.38
52837.0, 91.79
52838.0, 91.91
52839.0, 91.59
52840.0, 91.07
52841.0, 91.84
52842.0, 91.42
52843.0, 91.65
52844.0, 92.05
52845.0, 91.44
52846.0, 91.68
52847.0, 91.94
52848.0, 91.80
52849.0, 92.27
52850.0, 91.59
52851.0, 91.62
52852.0, 92.73
52853.0, 91.95
52854.0, 92.34
52855.0, 91.33
52856.0, 92.69
52857.0, 92.28
52858.0, 91.12
52859.0, 92.08
52860.0, 92.49
52861.0, 92.92
52862.0, 92.76
52863.0, 92.03
52864.0, 92.15
52865.0, 91.66
52866.0, 93.38
52867.0, 91.88
52868.0, 92.17
52869.0, 92.13
52870.0, 92.30
52871.0, 92.45
52872.0, 92.51
52873.0, 91.32
52874.0, 91.54
52875.0, 92.28
52876.0, 94.61
52877.0, 93.34
52878.0, 92.37
52879.0, 92.93
52880.0, 91.40
52881.0, 91.59
52882.0, 91.97
52883.0, 91.82
52884.0, 92.76
52885.0, 92.47
52886.0, 91.85
52887.0, 91.80
52888.0, 91.80
52889.0, 91.53
52890.0, 91.79
52891.0, 91.38
52892.0, 91.72
52893.0, 90.98
52894.0, 91.82
52895.0, 90.77
52896.0, 90.53
52897.0, 91.46
52898.0, 92.88
52899.0, 91.31
52900.0, 90.62
52901.0, 90.68
52902.0, 91.60
52903.0, 91.30
52904.0, 91.59
52905.0, 91.74
52906.0, 92.86
52907.0, 93.75
52908.0, 93.18
52909.0, 92.37
52910.0, 92.26
52911.0, 93.70
52912.0, 93.79
52913.0, 93.51
52914.0, 93.29
52915.0, 94.15
52916.0, 92.90
52917.0, 93.40
52918.0, 93.77
52919.0, 93.90
52920.0, 93.32
52921.0, 93.26
52922.0, 92.66
52923.0, 94.24
52924.0, 94.04
52925.0, 93.72
52926.0, 93.41
52927.0, 93.99
52928.0, 93.53
52929.0, 93.07
52930.0, 93.93
52931.0, 93.61
52932.0, 93.41
52933.0, 94.29
52934.0, 93.22
52935.0, 94.34
52936.0, 94.12
52937.0, 94.20
52938.0, 93.59
52939.0, 94.93
52940.0, 95.14
52941.0, 94.18
52942.0, 95.78
52943.0, 96.39
52944.0, 95.86
52945.0, 96.91
52946.0, 96.18
52947.0, 95.90
52948.0, 96.46
52949.0, 96.33
52950.0, 96.56
52951.0, 96.62
52952.0, 96.11
52953.0, 96.43
52954.0, 96.03
52955.0, 96.46
52956.0, 99.25
52957.0, 96.37
52958.0, 96.96
52959.0, 96.62
52960.0, 95.94
52961.0, 96.80
52962.0, 95.89
52963.0, 95.93
52964.0, 95.74
52965.0, 96.04
52966.0, 96.83
52967.0, 96.48
52968.0, 96.74
52969.0, 97.25
52970.0, 98.43
52971.0, 98.60
52972.0, 98.06
52973.0, 98.56
52974.0, 98.60
52975.0, 98.48
52976.0, 98.45
52977.0, 99.39
52978.0, 99.57
52979.0, 97.60
52980.0, 97.55
52981.0, 97.87
52982.0, 97.04
52983.0, 98.42
52984.0, 97.41
52985.0, 97.73
52986.0, 97.32
52987.0, 97.12
52988.0, 98.24
52989.0, 99.25
52990.0, 97.29
52991.0, 98.42
52992.0, 97.98
52993.0, 97.69
52994.0, 98.18
52995.0, 97.13
52996.0, 97.40
52997.0, 95.77
52998.0, 96.57
52999.0, 97.07
53000.0, 97.57
53001.0, 98.52
53002.0, 97.70
53003.0, 98.59
53004.0, 97.95
53005.0, 97.15
53006.0, 97.60
53007.0, 98.06
53008.0, 98.03
53009.0, 97.68
53010.0, 97.43
53011.0, 97.85
53012.0, 97.49
53013.0, 97.71
53014.0, 97.04
53015.0, 97.51
53016.0, 98.85
53017.0, 96.81
53018.0, 95.95
53019.0, 97.15
53020.0, 97.89
53021.0, 97.81
53022.0, 95.72
53023.0, 96.36
53024.0, 98.62
53025.0, 99.49
53026.0, 98.50
53027.0, 98.55
53028.0, 98.59
53029.0, 98.70
53030.0, 98.99
53031.0, 99.81
53032.0, 98.43
53033.0, 97.73
53034.0, 99.13
53035.0, 98.51
53036.0, 98.98
53037.0, 98.29
53038.0, 98.59
53039.0, 99.11
53040.0, 99.70
53041.0, 99.02
53042.0, 99.68
53043.0, 99.48
53044.0, 99.34
53045.0, 98.75
53046.0, 98.85
53047.0, 99.18
53048.0, 98.21
53049.0, 98.79
53050.0, 98.06
53051.0, 98.28
53052.0, 98.16
53053.0, 98.27
53054.0, 97.53
53055.0, 97.83
53056.0, 97.47
53057.0, 97.66
53058.0, 96.87
53059.0, 97.88
53060.0, 97.90
53061.0, 97.69
53062.0, 97.35
53063.0, 98.84
53064.0, 98.98
53065.0, 98.69
53066.0, 98.10
53067.0, 98.32
53068.0, 98.23
53069.0, 98.35
53070.0, 97.92
53071.0, 98.04
53072.0, 97.68
53073.0, 97.82
53074.0, 98.49
53075.0, 98.03
53076.0, 97.73
53077.0, 97.38
53078.0, 97.82
53079.0, 95.79
53080.0, 96.65
53081.0, 98.50
53082.0, 98.65
53083.0, 98.54
53084.0, 97.36
53085.0, 98.11
53086.0, 97.99
53087.0, 97.98
53088.0, 98.06
53089.0, 97.78
53090.0, 98.54
53091.0, 98.15
53092.0, 99.77
53093.0, 97.95
53094.0, 98.50
53095.0, 99.15
53096.0, 98.92
53097.0, 98.05
53098.0, 98.78
53099.0, 98.90
53100.0, 98.92
53101.0, 99.13
53102.0, 98.14
53103.0, 99.92
53104.0, 97.85
53105.0, 97.75
53106.0, 98.65
53107.0, 97.36
53108.0, 98.06
53109.0, 97.29
53110.0, 97.42
53111.0, 98.89
53112.0, 99.34
53113.0, 98.99
53114.0, 98.99
53115.0, 98.70
53116.0, 98.74
53117.0, 98.37
53118.0, 97.62
53119.0, 97.65
53120.0, 97.87
53121.0, 98.05
53122.0, 98.25
53123.0, 97.97
53124.0, 98.33
53125.0, 98.00
53126.0, 99.38
53127.0, 97.42
53128.0, 98.03
53129.0, 98.25
53130.0, 97.24
53131.0, 97.82
53132.0, 97.91
53133.0, 96.88
53134.0, 96.39
53135.0, 97.18
53136.0, 96.86
53137.0, 96.26
53138.0, 97.36
53139.0, 97.35
53140.0, 97.28
53141.0, 98.32
53142.0, 97.90
53143.0, 98.77
53144.0, 101.25
53145.0, 100.06
53146.0, 98.97
53147.0, 98.32
53148.0, 97.74
53149.0, 98.79
53150.0, 98.96
53151.0, 99.45
53152.0, 98.73
53153.0, 98.98
53154.0, 97.61
53155.0, 97.91
53156.0, 97.64
53157.0, 99.03
53158.0, 97.35
53159.0, 97.54
53160.0, 98.32
53161.0, 97.23
53162.0, 97.72
53163.0, 97.14
53164.0, 96.11
53165.0, 96.64
53166.0, 96.39
53167.0, 97.97
53168.0, 99.62
53169.0, 99.21
53170.0, 98.88
53171.0, 99.97
53172.0, 98.98
53173.0, 98.96
53174.0, 100.53
53175.0, 104.19
53176.0, 104.67
53177.0, 103.22
53178.0, 100.82
53179.0, 103.08
53180.0, 103.52
53181.0, 103.68
53182.0, 103.29
53183.0, 102.23
53184.0, 101.49
53185.0, 101.22
53186.0, 102.09
53187.0, 105.40
53188.0, 106.49
53189.0, 102.64
53190.0, 101.47
53191.0, 101.49
53192.0, 101.92
53193.0, 102.36
53194.0, -9999.00
53195.0, -9999.00
53196.0, -9999.00
53197.0, -9999.00
53198.0, -9999.00
53199.0, -9999.00
53200.0, -9999.00
53201.0, -9999.00
53202.0, -9999.00
53203.0, -9999.00
53204.0, -9999.00
53205.0, -9999.00
53206.0, -9999.00
53207.0, -9999.00
53208.0, -9999.00
53209.0, -9999.00
53210.0, -9999.00
53211.0, -9999.00
53212.0, -9999.00
53213.0, -9999.00
53214.0, -9999.00
53215.0, -9999.00
53216.0, -9999.00
53217.0, -9999.00
53218.0, -9999.00
53219.0, -9999.00
53220.0, 99.84
53221.0, 98.60
53222.0, 99.29
53223.0, 98.81
53224.0, 98.76
53225.0, 97.53
53226.0, 98.47
53227.0, 98.22
53228.0, 97.85
53229.0, 98.70
53230.0, 99.48
53231.0, 97.81
53232.0, 98.54
53233.0, 98.11
53234.0, 98.40
53235.0, 98.67
53236.0, 99.31
53237.0, 98.96
53238.0, 99.31
53239.0, 96.86
53240.0, 98.23
53241.0, 97.52
53242.0, 98.19
53243.0, 98.49
53244.0, 97.43
53245.0, 96.76
53246.0, 97.45
53247.0, 98.31
53248.0, 98.08
53249.0, 98.99
53250.0, 99.88
53251.0, 100.92
53252.0, 100.87
53253.0, 101.70
53254.0, 102.28
53255.0, 101.84
53256.0, 101.13
53257.0, 101.26
53258.0, 101.99
53259.0, 102.44
53260.0, 102.89
53261.0, 103.36
53262.0, 101.52
53263.0, 102.36
53264.0, 100.69
53265.0, 101.64
53266.0, 100.22
53267.0, 99.67
53268.0, 100.82
53269.0, 99.94
53270.0, 100.01
53271.0, 100.38
53272.0, 99.26
53273.0, 97.45
53274.0, 98.09
53275.0, 99.38
53276.0, 99.93
53277.0, 100.95
53278.0, 100.04
53279.0, 98.50
53280.0, 100.92
53281.0, 104.67
53282.0, 105.00
53283.0, 104.49
53284.0, 103.85
53285.0, 104.89
53286.0, 103.68
53287.0, 103.46
53288.0, 104.20
53289.0, 104.17
53290.0, 104.80
53291.0, 106.69
53292.0, 113.08
53293.0, 118.31
53294.0, 119.07
53295.0, 118.12
53296.0, 111.72
53297.0, 105.68
53298.0, 102.65
53299.0, 102.36
53300.0, 100.95
53301.0, 99.64
53302.0, 100.35
53303.0, 100.30
53304.0, 100.14
53305.0, 98.41
53306.0, 100.03
53307.0, 102.27
53308.0, 103.59
53309.0, 103.55
53310.0, 103.66
53311.0, 105.55
53312.0, 104.96
53313.0, 106.90
53314.0, 108.83
53315.0, 107.97
53316.0, 105.20
53317.0, 106.21
53318.0, 106.85
53319.0, 108.21
53320.0, 107.31
53321.0, 108.98
53322.0, 106.72
53323.0, 104.62
53324.0, 100.55
53325.0, 97.76
53326.0, 98.16
53327.0, 98.31
53328.0, 100.23
53329.0, 100.25
53330.0, 101.22
53331.0, 100.75
53332.0, 99.97
53333.0, 101.39
53334.0, 101.59
53335.0, 99.67
53336.0, 99.57
53337.0, 103.92
53338.0, 106.65
53339.0, 107.50
53340.0, 106.98
53341.0, 105.76
53342.0, 106.52
53343.0, 107.82
53344.0, 111.66
53345.0, 114.44
53346.0, 111.23
53347.0, 112.53
53348.0, 110.53
53349.0, 107.25
53350.0, 105.94
53351.0, 103.02
53352.0, 101.31
53353.0, 101.96
53354.0, 102.48
53355.0, 104.27
53356.0, 108.55
53357.0, 110.52
53358.0, 109.41
53359.0, 107.50
53360.0, 106.81
53361.0, 104.11
53362.0, 105.04
53363.0, 103.68
53364.0, 103.15
53365.0, 103.59
53366.0, 103.73
53367.0, 103.95
53368.0, 103.13
53369.0, 102.43
53370.0, 102.43
53371.0, 101.88
53372.0, 102.09
53373.0, 101.40
53374.0, 101.42
53375.0, 102.21
53376.0, 102.30
53377.0, 104.36
53378.0, 101.46
53379.0, 101.36
53380.0, 99.31
53381.0, 99.84
53382.0, 99.79
53383.0, 99.73
53384.0, 99.75
53385.0, 100.11
53386.0, 101.17
53387.0, 102.07
53388.0, 101.55
53389.0, 100.96
53390.0, 99.59
53391.0, 100.84
53392.0, 102.60
53393.0, 102.37
53394.0, 102.24
53395.0, 101.90
53396.0, 101.20
53397.0, 101.04
53398.0, 99.54
53399.0, 100.69
53400.0, 100.30
53401.0, 99.77
53402.0, 100.61
53403.0, 101.43
53404.0, 100.14
53405.0, 99.97
53406.0, 99.60
53407.0, 100.00
53408.0, 99.39
53409.0, 99.60
53410.0, 98.30
53411.0, 98.36
53412.0, 99.02
53413.0, 99.45
53414.0, 99.54
53415.0, 99.50
53416.0, 99.60
53417.0, 99.37
53418.0, 100.00
53419.0, 99.43
53420.0, 99.32
53421.0, 100.36
53422.0, 101.09
53423.0, 101.79
53424.0, 101.00
53425.0, 102.39
53426.0, 103.04
53427.0, 102.28
53428.0, 103.69
53429.0, 103.10
53430.0, 103.36
53431.0, 102.74
53432.0, 103.65
53433.0, 103.65
53434.0, 100.96
53435.0, 99.92
53436.0, 99.99
53437.0, 101.03
53438.0, 102.21
53439.0, 102.42
53440.0, 101.37
53441.0, 99.07
53442.0, 103.56
53443.0, 112.69
53444.0, 107.73
53445.0, 104.21
53446.0, 103.91
53447.0, 101.90
53448.0, 99.20
53449.0, 99.37
53450.0, 101.20
53451.0, 101.62
53452.0, 102.94
53453.0, 101.47
53454.0, 101.92
53455.0, 103.19
53456.0, 103.72
53457.0, 104.65
53458.0, 105.02
53459.0, 105.05
53460.0, 105.25
53461.0, 106.25
53462.0, 105.47
53463.0, 104.68
53464.0, 102.93
53465.0, 102.81
53466.0, 102.88
53467.0, 101.68
53468.0, 103.43
53469.0, 102.94
53470.0, 101.89
53471.0, 101.53
53472.0, 101.51
53473.0, 102.23
53474.0, 101.46
53475.0, 100.19
53476.0, 99.84
53477.0, 100.77
53478.0, 98.51
53479.0, 98.72
53480.0, 97.79
53481.0, 96.17
53482.0, 96.41
53483.0, 95.72
53484.0, 96.90
53485.0, 95.92
53486.0, 95.90
53487.0, 96.39
53488.0, 96.74
53489.0, 97.52
53490.0, 97.32
53491.0, 97.26
53492.0, 97.68
53493.0, 97.37
53494.0, 97.61
53495.0, 97.84
53496.0, 98.42
53497.0, 98.08
53498.0, 98.77
53499.0, 96.82
53500.0, 97.41
53501.0, 95.92
53502.0, 96.96
53503.0, 96.24
53504.0, 96.23
53505.0, 96.66
53506.0, 95.48
53507.0, 96.04
53508.0, 96.34
53509.0, 96.66
53510.0, 96.83
53511.0, 96.07
53512.0, 97.32
53513.0, 96.79
53514.0, 96.91
53515.0, 96.51
53516.0, 97.09
53517.0, 97.70
53518.0, 96.76
53519.0, 96.77
53520.0, 95.82
53521.0, 97.18
53522.0, 95.83
53523.0, 95.60
53524.0, 95.88
53525.0, 95.60
53526.0, 95.62
53527.0, 95.98
53528.0, 96.49
53529.0, 96.84
53530.0, 95.47
53531.0, 95.71
53532.0, 95.61
53533.0, 95.29
53534.0, 96.22
53535.0, 96.20
53536.0, 96.32
53537.0, 96.39
53538.0, 96.67
53539.0, 95.33
53540.0, 95.29
53541.0, 97.41
53542.0, 96.65
53543.0, 96.76
53544.0, 96.78
53545.0, 96.91
53546.0, 97.23
53547.0, 96.38
53548.0, 95.62
53549.0, 95.73
53550.0, 95.70
53551.0, 96.25
53552.0, 95.92
53553.0, 96.38
53554.0, 96.13
53555.0, 95.70
53556.0, 95.91
53557.0, 96.02
53558.0, 95.93
53559.0, 95.93
53560.0, 95.38
53561.0, 96.79
53562.0, 96.12
53563.0, 96.74
53564.0, 97.10
53565.0, 96.56
53566.0, 95.12
53567.0, 95.05
53568.0, 95.46
53569.0, 96.75
53570.0, 97.41
53571.0, 96.18
53572.0, 96.62
53573.0, 96.34
53574.0, 97.05
53575.0, 95.45
53576.0, 95.95
53577.0, 95.46
53578.0, 95.77
53579.0, 97.12
53580.0, 96.63
53581.0, 97.41
53582.0, 96.05
53583.0, 96.10
53584.0, 95.94
53585.0, 95.43
53586.0, 96.02
53587.0, 96.05
53588.0, 95.00
53589.0, 95.18
53590.0, 95.01
53591.0, 94.83
53592.0, 96.12
53593.0, 97.28
53594.0, 96.90
53595.0, 97.07
53596.0, 96.95
53597.0, 97.51
53598.0, 96.73
53599.0, 96.48
53600.0, 96.57
53601.0, 96.67
53602.0, 96.16
53603.0, 95.37
53604.0, 95.12
53605.0, 96.16
53606.0, 94.82
53607.0, 95.90
53608.0, 96.97
53609.0, 96.43
53610.0, 96.45
53611.0, 98.11
53612.0, 97.02
53613.0, 97.94
53614.0, 98.17
53615.0, 98.40
53616.0, 98.59
53617.0, 97.89
53618.0, 98.28
53619.0, 98.18
53620.0, 98.50
53621.0, 98.83
53622.0, 98.43
53623.0, 97.04
53624.0, 96.63
53625.0, 97.77
53626.0, 98.64
53627.0, 95.66
53628.0, 96.95
53629.0, 97.46
53630.0, 96.71
53631.0, 95.56
53632.0, 98.69
53633.0, 98.68
53634.0, 99.21
53635.0, 100.95
53636.0, 100.04
53637.0, 100.20
53638.0, 100.37
53639.0, 101.64
53640.0, 100.67
53641.0, 100.02
53642.0, 99.77
53643.0, 99.64
53644.0, 100.69
53645.0, 101.02
53646.0, 99.63
53647.0, 97.95
53648.0, 99.23
53649.0, 98.34
53650.0, 97.12
53651.0, 98.33
53652.0, 96.11
53653.0, 96.70
53654.0, 97.20
53655.0, 98.96
53656.0, 100.00
53657.0, 98.57
53658.0, 97.36
53659.0, 96.50
53660.0, 96.06
53661.0, 96.29
53662.0, 97.52
53663.0, 96.87
53664.0, 96.54
53665.0, 96.93
53666.0, 96.70
53667.0, 97.49
53668.0, 97.81
53669.0, 97.62
53670.0, 97.10
53671.0, 96.32
53672.0, 97.54
53673.0, 96.16
53674.0, 96.20
53675.0, 96.50
53676.0, 97.37
53677.0, 97.11
53678.0, 97.32
53679.0, 96.73
53680.0, 97.15
53681.0, 96.98
53682.0, 97.48
53683.0, 97.06
53684.0, 97.44
53685.0, 97.25
53686.0, 96.74
53687.0, 96.44
53688.0, 96.95
53689.0, 96.49
53690.0, 97.02
53691.0, 96.83
53692.0, 96.68
53693.0, 96.57
53694.0, 96.43
53695.0, 97.77
53696.0, 98.17
53697.0, 97.52
53698.0, 95.94
53699.0, 96.72
53700.0, 97.65
53701.0, 97.02
53702.0, 96.80
53703.0, 97.47
53704.0, 98.34
53705.0, 96.66
53706.0, 97.82
53707.0, 97.19
53708.0, 97.07
53709.0, 97.24
53710.0, 97.33
53711.0, 97.36
53712.0, 96.68
53713.0, 97.76
53714.0, 96.45
53715.0, 97.18
53716.0, 96.78
53717.0, 97.24
53718.0, 97.73
53719.0, 98.07
53720.0, 97.81
53721.0, 96.83
53722.0, 97.23
53723.0, 96.62
53724.0, 96.46
53725.0, 97.33
53726.0, 95.90
53727.0, 97.37
53728.0, 97.02
53729.0, 96.94
53730.0, 95.77
53731.0, 96.44
53732.0, 96.86
53733.0, 97.29
53734.0, 96.64
53735.0, 96.21
53736.0, 97.38
53737.0, 96.41
53738.0, 98.10
53739.0, 97.93
53740.0, 96.92
53741.0, 97.84
53742.0, 96.45
53743.0, 96.75
53744.0, 95.76
53745.0, 96.94
53746.0, 96.88
53747.0, 97.12
53748.0, 95.91
53749.0, 97.60
53750.0, 97.00
53751.0, 96.66
53752.0, 96.43
53753.0, 95.05
53754.0, 96.30
53755.0, 96.59
53756.0, 98.38
53757.0, 99.12
53758.0, 99.07
53759.0, 98.95
53760.0, 98.29
53761.0, 97.23
53762.0, 97.95
53763.0, 98.01
53764.0, 98.64
53765.0, 98.93
53766.0, 99.73
53767.0, 99.92
53768.0, 99.85
53769.0, 98.85
53770.0, 100.56
53771.0, 99.47
53772.0, 98.62
53773.0, 99.46
53774.0, 99.42
53775.0, 99.82
53776.0, 100.26
53777.0, 99.13
53778.0, 100.37
53779.0, 99.34
53780.0, 99.27
53781.0, 100.46
53782.0, 99.71
53783.0, 99.35
53784.0, 99.17
53785.0, 98.82
53786.0, 97.87
53787.0, 99.00
53788.0, 98.40
53789.0, 99.19
53790.0, 98.46
53791.0, 97.64
53792.0, 98.24
53793.0, 98.02
53794.0, 97.10
53795.0, 98.12
53796.0, 98.21
53797.0, 98.56
53798.0, 98.19
53799.0, 97.59
53800.0, 97.41
53801.0, 98.28
53802.0, 98.14
53803.0, 97.54
53804.0, 98.34
53805.0, 97.42
53806.0, 98.02
53807.0, 97.72
53808.0, 96.88
53809.0, 98.29
53810.0, 97.43
53811.0, 97.47
53812.0, 97.98
53813.0, 97.57
53814.0, 97.28
53815.0, 97.24
53816.0, 97.32
53817.0, 98.02
53818.0, 97.81
53819.0, 97.49
53820.0, 97.14
53821.0, 97.13
53822.0, 97.03
53823.0, 97.94
53824.0, 96.77
53825.0, 96.80
53826.0, 96.94
53827.0, 97.38
53828.0, 96.79
53829.0, 96.95
53830.0, 96.55
53831.0, 95.22
53832.0, 96.46
53833.0, 97.10
53834.0, 95.78
53835.0, 95.80
53836.0, 95.88
53837.0, 96.33
53838.0, 95.89
53839.0, 95.85
53840.0, 96.28
53841.0, 95.06
53842.0, 95.41
53843.0, 95.89
53844.0, 96.16
53845.0, 94.29
53846.0, 95.17
53847.0, 95.09
53848.0, 94.98
53849.0, 95.51
53850.0, 95.38
53851.0, 94.87
53852.0, 94.67
53853.0, 94.15
53854.0, 96.54
53855.0, 95.39
53856.0, 95.49
53857.0, 95.36
53858.0, 95.22
53859.0, 94.81
53860.0, 95.69
53861.0, 94.76
53862.0, 94.65
53863.0, 94.83
53864.0, 95.55
53865.0, 94.22
53866.0, 93.59
53867.0, 95.30
53868.0, 95.97
53869.0, 94.86
53870.0, 94.08
53871.0, 95.60
53872.0, 94.19
53873.0, 94.97
53874.0, 95.55
53875.0, 95.07
53876.0, 94.86
53877.0, 95.26
53878.0, 96.11
53879.0, 95.39
53880.0, 95.10
53881.0, 95.23
53882.0, 95.63
53883.0, 94.80
53884.0, 95.85
53885.0, 95.68
53886.0, 95.43
53887.0, 96.16
53888.0, 94.84
53889.0, 95.40
53890.0, 94.34
53891.0, 94.50
53892.0, 94.64
53893.0, 94.54
53894.0, 94.31
53895.0, 94.01
53896.0, 94.87
53897.0, 94.80
53898.0, 94.86
53899.0, 95.14
53900.0, 94.20
53901.0, 93.73
53902.0, 94.52
53903.0, 95.43
53904.0, 93.93
53905.0, 94.94
53906.0, 95.34
53907.0, 94.95
53908.0, 93.94
53909.0, 95.00
53910.0, 96.32
53911.0, 95.63
53912.0, 95.18
53913.0, 95.61
53914.0, 94.94
53915.0, 95.67
53916.0, 95.16
53917.0, 95.17
53918.0, 95.43
53919.0, 94.45
53920.0, 95.24
53921.0, 94.66
53922.0, 95.51
53923.0, 95.78
53924.0, 95.47
53925.0, 95.23
53926.0, 97.09
53927.0, 96.72
53928.0, 95.24
53929.0, 94.48
53930.0, 94.57
53931.0, 93.93
53932.0, 94.18
53933.0, 94.23
53934.0, 93.46
53935.0, 94.20
53936.0, 93.41
53937.0, 94.31
53938.0, 94.70
53939.0, 94.96
53940.0, 94.17
53941.0, 94.77
53942.0, 95.27
53943.0, 95.41
53944.0, 94.81
53945.0, 94.85
53946.0, 95.42
53947.0, 95.13
53948.0, 95.35
53949.0, 94.55
53950.0, 94.02
53951.0, 95.07
53952.0, 94.84
53953.0, 95.52
53954.0, 95.78
53955.0, 94.67
53956.0, 95.26
53957.0, 94.59
53958.0, 95.55
53959.0, 94.93
53960.0, 95.43
53961.0, 95.33
53962.0, 95.83
53963.0, 95.51
53964.0, 94.95
53965.0, 95.28
53966.0, 95.21
53967.0, 95.54
53968.0, 96.84
53969.0, 95.21
53970.0, 95.29
53971.0, 96.27
53972.0, 95.23
53973.0, 95.00
53974.0, 95.42
53975.0, 95.58
53976.0, 95.48
53977.0, 96.19
53978.0, 95.73
53979.0, 96.61
53980.0, 97.21
53981.0, 96.82
53982.0, 96.55
53983.0, 96.40
53984.0, 96.66
53985.0, 96.83
53986.0, 97.50
53987.0, 97.12
53988.0, 97.74
53989.0, 98.09
53990.0, 96.65
53991.0, 97.77
53992.0, 99.17
53993.0, 98.17
53994.0, 98.55
53995.0, 98.19
53996.0, 97.07
53997.0, 98.19
53998.0, 98.56
53999.0, 98.85
54000.0, 98.82
54001.0, 98.30
54002.0, 99.49
54003.0, 97.92
54004.0, 98.12
54005.0, 97.75
54006.0, 98.62
54007.0, 97.88
54008.0, 97.96
54009.0, 99.50
54010.0, 98.26
54011.0, 98.62
54012.0, 99.63
54013.0, 100.04
54014.0, 100.43
54015.0, 100.25
54016.0, 100.75
54017.0, 100.76
54018.0, 100.95
54019.0, 101.79
54020.0, 101.63
54021.0, 100.87
54022.0, 101.32
54023.0, 102.13
54024.0, 102.15
54025.0, 101.87
54026.0, 101.39
54027.0, 100.92
54028.0, 101.15
54029.0, 100.88
54030.0, 102.89
54031.0, 103.12
54032.0, 103.14
54033.0, 101.30
54034.0, 99.52
54035.0, 99.04
54036.0, 99.39
54037.0, 100.54
54038.0, 102.12
54039.0, 102.37
54040.0, 102.80
54041.0, 101.65
54042.0, 101.33
54043.0, 100.79
54044.0, 100.61
54045.0, 101.63
54046.0, 100.28
54047.0, 101.85
54048.0, 101.87
54049.0, 101.91
54050.0, 101.72
54051.0, 101.19
54052.0, 100.85
54053.0, 100.40
54054.0, 100.45
54055.0, 100.21
54056.0, 99.51
54057.0, 98.91
54058.0, 99.55
54059.0, 99.69
54060.0, 98.95
54061.0, 99.08
54062.0, 99.14
54063.0, 98.80
54064.0, 98.57
54065.0, 99.33
54066.0, 100.03
54067.0, 99.85
54068.0, 100.13
54069.0, 99.45
54070.0, 99.16
54071.0, 98.43
54072.0, 98.58
54073.0, 97.79
54074.0, -9999.00
54075.0, -9999.00
54076.0, -9999.00
54077.0, -9999.00
54078.0, -9999.00
54079.0, -9999.00
54080.0, -9999.00
54081.0, -9999.00
54082.0, -9999.00
54083.0, -9999.00
54084.0, -9999.00
54085.0, -9999.00
54086.0, -9999.00
54087.0, -9999.00
54088.0, -9999.00
54089.0, -9999.00
54090.0, -9999.00
54091.0, -9999.00
54092.0, -9999.00
54093.0, -9999.00
54094.0, -9999.00
54095.0, -9999.00
54096.0, -9999.00
54097.0, -9999.00
54098.0, -9999.00
54099.0, -9999.00
54100.0, 97.51
54101.0, 98.24
54102.0, 98.94
54103.0, 99.22
54104.0, 99.46
54105.0, 97.88
54106.0, 98.39
54107.0, 99.07
54108.0, 98.54
54109.0, 98.62
54110.0, 99.67
54111.0, 98.96
54112.0, 98.11
54113.0, 99.13
54114.0, -9999.00
54115.0, -9999.00
54116.0, -9999.00
54117.0, -9999.00
54118.0, -9999.00
54119.0, -9999.00
54120.0, -9999.00
54121.0, -9999.00
54122.0, -9999.00
54123.0, -9999.00
54124.0, -9999.00
54125.0, -9999.00
54126.0, -9999.00
54127.0, -9999.00
54128.0, -9999.00
54129.0, -9999.00
54130.0, -9999.00
54131.0, -9999.00
54132.0, -9999.00
54133.0, -9999.00
54134.0, -9999.00
54135.0, -9999.00
54136.0, -9999.00
54137.0, -9999.00
54138.0, -9999.00
54139.0, -9999.00
54140.0, -9999.00
54141.0, -9999.00
54142.0, -9999.00
54143.0, -9999.00
54144.0, 103.67
54145.0, 103.54
54146.0, 103.71
54147.0, 104.12
54148.0, 103.14
54149.0, 103.14
54150.0, 103.69
54151.0, 104.22
54152.0, 103.39
54153.0, 104.02
54154.0, 103.53
54155.0, 102.46
54156.0, 102.52
54157.0, 102.97
54158.0, 103.58
54159.0, 102.29
54160.0, 103.04
54161.0, 102.34
54162.0, 102.15
54163.0, 103.32
54164.0, 103.30
54165.0, 101.96
54166.0, 98.33
54167.0, 95.34
54168.0, 95.52
54169.0, 96.75
54170.0, 95.98
54171.0, 97.54
54172.0, 98.27
54173.0, 97.46
54174.0, 97.32
54175.0, 99.52
54176.0, 99.82
54177.0, 98.64
54178.0, 100.92
54179.0, 99.94
54180.0, 102.12
54181.0, 103.53
54182.0, 102.16
54183.0, 102.53
54184.0, 104.84
54185.0, 104.89
54186.0, 104.59
54187.0, 103.99
54188.0, 103.45
54189.0, 102.85
54190.0, 102.99
54191.0, 103.45
54192.0, 103.65
54193.0, 104.34
54194.0, 104.25
54195.0, 104.63
54196.0, 105.27
54197.0, 103.66
54198.0, 104.47
54199.0, 104.93
54200.0, 103.99
54201.0, 104.05
54202.0, 104.04
54203.0, 103.04
54204.0, 101.93
54205.0, 101.81
54206.0, 102.78
54207.0, 103.53
54208.0, 102.10
54209.0, 100.57
54210.0, 101.09
54211.0, 98.57
54212.0, 96.16
54213.0, 95.70
54214.0, 99.66
54215.0, 99.98
54216.0, 101.02
54217.0, 100.43
54218.0, 101.33
54219.0, 100.32
54220.0, 99.12
54221.0, 99.54
54222.0, 99.78
54223.0, 98.07
54224.0, 99.42
54225.0, 99.43
54226.0, 100.02
54227.0, 100.34
54228.0, 99.61
54229.0, 101.31
54230.0, 101.70
54231.0, 101.37
54232.0, 101.63
54233.0, 102.26
54234.0, 100.94
54235.0, 102.15
54236.0, 103.10
54237.0, 102.61
54238.0, 101.81
54239.0, 102.00
54240.0, 101.50
54241.0, 100.88
54242.0, 99.20
54243.0, 99.55
54244.0, 99.29
54245.0, 99.46
54246.0, 99.97
54247.0, 100.52
54248.0, 100.47
54249.0, 100.45
54250.0, 100.65
54251.0, 99.77
54252.0, 100.23
54253.0, 100.15
54254.0, 100.59
54255.0, 99.69
54256.0, 100.09
54257.0, 99.06
54258.0, 99.01
54259.0, 98.66
54260.0, 98.08
54261.0, 98.18
54262.0, 98.06
54263.0, 97.94
54264.0, 98.12
54265.0, 98.08
54266.0, 98.55
54267.0, 98.58
54268.0, 97.74
54269.0, 99.52
54270.0, 99.64
54271.0, 100.29
54272.0, 100.39
54273.0, 100.41
54274.0, 100.64
54275.0, 100.42
54276.0, 100.07
54277.0, 100.66
54278.0, 99.89
54279.0, 101.18
54280.0, 101.38
54281.0, 101.39
54282.0, 102.24
54283.0, 101.01
54284.0, 100.90
54285.0, 101.08
54286.0, 101.82
54287.0, 101.52
54288.0, 99.72
54289.0, 99.72
54290.0, 99.36
54291.0, 99.91
54292.0, 101.92
54293.0, 101.09
54294.0, 102.03
54295.0, 101.71
54296.0, 101.92
54297.0, 102.56
54298.0, 100.99
54299.0, 102.74
54300.0, 101.51
54301.0, 101.78
54302.0, 100.60
54303.0, 101.77
54304.0, 101.52
54305.0, 101.08
54306.0, 101.73
54307.0, 101.88
54308.0, 101.84
54309.0, 101.30
54310.0, 101.42
54311.0, 101.91
54312.0, 102.27
54313.0, 102.00
54314.0, 102.07
54315.0, 100.98
54316.0, 101.16
54317.0, 100.82
54318.0, 99.64
54319.0, 100.33
54320.0, 99.32
54321.0, 98.17
54322.0, 99.30
54323.0, 99.20
54324.0, 99.47
54325.0, 99.49
54326.0, 99.12
54327.0, 99.36
54328.0, 99.75
54329.0, 100.17
54330.0, 99.13
54331.0, 99.44
54332.0, 100.27
54333.0, 100.34
54334.0, 100.55
54335.0, 100.09
54336.0, 98.27
54337.0, 98.77
54338.0, 99.72
54339.0, 99.13
54340.0, 97.48
54341.0, 96.76
54342.0, 97.88
54343.0, 97.20
54344.0, 97.29
54345.0, 98.27
54346.0, 98.94
54347.0, 98.98
54348.0, 98.72
54349.0, 99.03
54350.0, 99.02
54351.0, 98.56
54352.0, 98.35
54353.0, 98.33
54354.0, 98.60
54355.0, 98.24
54356.0, 98.24
54357.0, 99.05
54358.0, 98.91
54359.0, 99.07
54360.0, 98.51
54361.0, 98.53
54362.0, 97.39
54363.0, 97.66
54364.0, 97.45
54365.0, 96.19
54366.0, 98.19
54367.0, 96.73
54368.0, 98.80
54369.0, 98.92
54370.0, 98.06
54371.0, 97.34
54372.0, 97.84
54373.0, 97.52
54374.0, 98.23
54375.0, 98.42
54376.0, 98.18
54377.0, 97.53
54378.0, 97.68
54379.0, 97.92
54380.0, 97.03
54381.0, 98.12
54382.0, 97.07
54383.0, 96.72
54384.0, 96.67
54385.0, 96.71
54386.0, 95.52
54387.0, 95.66
54388.0, 96.66
54389.0, 96.34
54390.0, 96.69
54391.0, 95.29
54392.0, 96.20
54393.0, 95.45
54394.0, 96.24
54395.0, 97.85
54396.0, 97.57
54397.0, 97.23
54398.0, 98.14
54399.0, 98.38
54400.0, 98.56
54401.0, 100.53
54402.0, 98.59
54403.0, 98.38
54404.0, 97.14
54405.0, 97.60
54406.0, 98.19
54407.0, 95.82
54408.0, 97.19
54409.0, 96.73
54410.0, 96.92
54411.0, 96.65
54412.0, 97.40
54413.0, 96.58
54414.0, 95.89
54415.0, 95.97
54416.0, 95.66
54417.0, 96.11
54418.0, 95.22
54419.0, 98.50
54420.0, 97.79
54421.0, 97.96
54422.0, 96.92
54423.0, 95.60
54424.0, 96.03
54425.0, 95.34
54426.0, 95.76
54427.0, 95.81
54428.0, 96.41
54429.0, 95.87
54430.0, 95.55
54431.0, 95.40
54432.0, 96.27
54433.0, 96.44
54434.0, 95.23
54435.0, 96.67
54436.0, 95.97
54437.0, 96.21
54438.0, 96.14
54439.0, 95.82
54440.0, 95.99
54441.0, 94.37
54442.0, 94.62
54443.0, 94.86
54444.0, 95.12
54445.0, 95.67
54446.0, 95.36
54447.0, 95.55
54448.0, 96.49
54449.0, 95.51
54450.0, 95.62
54451.0, 96.61
54452.0, 96.59
54453.0, 97.01
54454.0, 97.56
54455.0, 96.25
54456.0, 96.92
54457.0, 96.09
54458.0, 97.35
54459.0, 95.77
54460.0, 96.03
54461.0, 95.77
54462.0, 94.93
54463.0, 95.41
54464.0, 95.59
54465.0, 95.74
54466.0, 95.83
54467.0, 96.44
54468.0, 97.70
54469.0, 96.51
54470.0, 95.94
54471.0, 96.75
54472.0, 96.41
54473.0, 96.98
54474.0, 96.13
54475.0, 95.72
54476.0, 95.75
54477.0, 96.75
54478.0, 97.58
54479.0, 96.56
54480.0, 96.46
54481.0, 96.11
54482.0, 96.05
54483.0, 96.78
54484.0, 96.30
54485.0, 95.97
54486.0, 94.85
54487.0, 94.31
54488.0, 94.81
54489.0, 95.57
54490.0, 95.58
54491.0, 95.28
54492.0, 96.39
54493.0, 96.78
54494.0, 95.87
54495.0, 96.87
54496.0, 96.51
54497.0, 96.24
54498.0, 95.99
54499.0, 95.32
54500.0, 95.09
54501.0, 95.76
54502.0, 94.30
54503.0, 94.13
54504.0, 94.73
54505.0, 96.03
54506.0, 96.12
54507.0, 96.11
54508.0, 95.82
54509.0, 94.95
54510.0, 95.73
54511.0, 95.04
54512.0, 94.37
54513.0, 94.07
54514.0, 92.89
54515.0, 93.32
54516.0, 94.19
54517.0, 94.72
54518.0, 94.25
54519.0, 94.58
54520.0, 93.28
54521.0, 93.98
54522.0, 93.59
54523.0, 93.87
54524.0, 93.84
54525.0, 95.06
54526.0, 94.91
54527.0, 94.25
54528.0, 93.50
54529.0, 95.41
54530.0, 95.17
54531.0, 96.60
54532.0, 94.14
54533.0, 94.58
54534.0, 94.59
54535.0, 94.95
54536.0, 94.67
54537.0, 95.10
54538.0, 95.23
54539.0, 95.18
54540.0, 94.86
54541.0, 94.88
54542.0, 94.54
54543.0, 95.75
54544.0, 94.90
54545.0, 95.55
54546.0, 95.12
54547.0, 94.36
54548.0, 94.82
54549.0, 94.92
54550.0, 94.47
54551.0, 94.68
54552.0, 95.26
54553.0, 93.22
54554.0, 95.94
54555.0, 95.07
54556.0, 94.79
54557.0, 95.69
54558.0, 95.82
54559.0, 94.54
54560.0, 94.62
54561.0, 94.55
54562.0, 93.89
54563.0, 94.90
54564.0, 94.44
54565.0, 94.45
54566.0, 95.78
54567.0, 95.03
54568.0, 95.04
54569.0, 95.20
54570.0, 94.98
54571.0, 94.81
54572.0, 95.15
54573.0, 94.52
54574.0, 95.42
54575.0, 94.69
54576.0, 94.66
54577.0, 94.51
54578.0, 94.57
54579.0, 94.48
54580.0, 95.09
54581.0, 95.05
54582.0, 96.21
54583.0, 94.47
54584.0, 94.34
54585.0, 94.91
54586.0, 94.75
54587.0, 94.33
54588.0, 94.66
54589.0, 94.90
54590.0, 94.73
54591.0, 95.20
54592.0, 95.93
54593.0, 94.89
54594.0, 94.20
54595.0, 94.27
54596.0, 94.85
54597.0, 94.99
54598.0, 95.38
54599.0, 94.92
54600.0, 95.16
54601.0, 93.85
54602.0, 93.67
54603.0, 93.67
54604.0, 93.75
54605.0, 94.20
54606.0, 95.04
54607.0, 94.10
54608.0, 93.95
54609.0, 93.68
54610.0, 93.76
54611.0, 93.53
54612.0, 94.39
54613.0, 93.23
54614.0, 93.85
54615.0, 94.00
54616.0, 93.27
54617.0, 94.20
54618.0, 93.99
54619.0, 93.17
54620.0, 94.53
54621.0, 93.06
54622.0, 93.77
54623.0, 94.09
54624.0, 93.03
54625.0, 93.66
54626.0, 93.73
54627.0, 94.15
54628.0, 94.00
54629.0, 93.48
54630.0, 93.00
54631.0, 94.43
54632.0, 93.17
54633.0, 92.42
54634.0, 92.74
54635.0, 92.40
54636.0, 92.77
54637.0, 92.40
54638.0, 94.04
54639.0, 94.10
54640.0, 93.92
54641.0, 94.69
54642.0, 93.78
54643.0, 93.74
54644.0, 94.15
54645.0, 93.70
54646.0, 93.01
54647.0, 92.98
54648.0, 93.68
54649.0, 93.62
54650.0, 93.03
54651.0, 93.99
54652.0, 93.72
54653.0, 93.25
54654.0, 93.69
54655.0, 93.84
54656.0, 93.14
54657.0, 93.36
54658.0, 93.67
54659.0, 93.48
54660.0, 93.70
54661.0, 94.16
54662.0, 94.49
54663.0, 93.40
54664.0, 93.77
54665.0, 94.24
54666.0, 92.81
54667.0, 93.75
54668.0, 93.91
54669.0, 93.33
54670.0, 94.68
54671.0, 93.28
54672.0, 93.32
54673.0, 93.98
54674.0, 92.54
54675.0, 92.58
54676.0, 93.28
54677.0, 93.22
54678.0, 93.87
54679.0, 93.68
54680.0, 94.08
54681.0, 93.82
54682.0, 93.30
54683.0, 94.54
54684.0, 93.70
54685.0, 94.13
54686.0, 94.02
54687.0, 92.85
54688.0, 94.22
54689.0, 93.52
54690.0, 94.37
54691.0, 93.71
54692.0, 93.81
54693.0, 94.69
54694.0, 94.29
54695.0, 94.35
54696.0, 93.82
54697.0, 93.74
54698.0, 93.42
54699.0, 93.85
54700.0, 93.40
54701.0, 93.84
54702.0, 93.32
54703.0, 94.21
54704.0, 94.86
54705.0, 94.22
54706.0, 93.80
54707.0, 94.49
54708.0, 95.48
54709.0, 95.00
54710.0, 96.37
54711.0, 95.73
54712.0, 94.80
54713.0, 95.75
54714.0, 95.08
54715.0, 94.80
54716.0, 95.17
54717.0, 94.20
54718.0, 94.78
54719.0, 95.21
54720.0, 95.14
54721.0, 94.24
54722.0, 94.91
54723.0, 94.54
54724.0, 95.31
54725.0, 95.93
54726.0, 96.06
54727.0, 94.11
54728.0, 96.04
54729.0, 95.74
54730.0, 94.87
54731.0, 94.87
54732.0, 95.69
54733.0, 96.32
54734.0, 95.30
54735.0, 95.23
54736.0, 95.32
54737.0, 95.51
54738.0, 95.16
54739.0, 95.97
54740.0, 94.87
54741.0, 95.75
54742.0, 95.87
54743.0, 95.88
54744.0, 95.34
54745.0, 95.49
54746.0, 95.09
54747.0, 94.06
54748.0, 93.94
54749.0, 94.81
54750.0, 93.81
54751.0, 94.32
54752.0, 94.20
54753.0, 94.62
54754.0, 94.27
54755.0, 94.09
54756.0, 94.52
54757.0, 94.48
54758.0, 94.12
54759.0, 93.08
54760.0, 94.66
54761.0, 95.14
54762.0, 94.94
54763.0, 93.86
54764.0, 95.04
54765.0, 94.37
54766.0, 94.84
54767.0, 93.19
54768.0, 93.89
54769.0, 93.91
54770.0, 94.88
54771.0, 95.06
54772.0, 94.85
54773.0, 95.38
54774.0, 94.98
54775.0, 95.04
54776.0, 95.78
54777.0, 94.48
54778.0, 95.36
54779.0, 94.28
54780.0, 95.04
54781.0, 94.19
54782.0, 94.33
54783.0, 93.99
54784.0, 94.41
54785.0, 95.16
54786.0, 94.28
54787.0, 94.32
54788.0, 95.64
54789.0, 95.36
54790.0, 94.93
54791.0, 96.60
54792.0, 95.15
54793.0, 95.24
54794.0, 94.28
54795.0, 94.62
54796.0, 93.06
54797.0, 95.29
54798.0, 94.76
54799.0, 94.53
54800.0, 95.52
54801.0, 94.54
54802.0, 94.99
54803.0, 95.14
54804.0, 94.75
54805.0, 95.24
54806.0, 95.21
54807.0, 95.01
54808.0, 95.48
54809.0, 96.07
54810.0, 96.48
54811.0, 97.06
54812.0, 97.27
54813.0, 99.85
54814.0, 100.07
54815.0, 99.15
54816.0, 97.80
54817.0, 97.35
54818.0, 96.61
54819.0, 96.03
54820.0, 96.24
54821.0, 95.82
54822.0, 95.79
54823.0, 96.68
54824.0, 96.92
54825.0, 96.32
54826.0, 96.16
54827.0, 96.04
54828.0, 96.23
54829.0, 95.28
54830.0, 95.25
54831.0, 94.55
54832.0, 95.43
54833.0, 94.63
54834.0, 94.56
54835.0, 94.79
54836.0, 94.84
54837.0, 93.79
54838.0, 94.28
54839.0, 93.45
54840.0, 93.55
54841.0, 93.39
54842.0, 93.98
54843.0, 95.49
54844.0, 94.39
54845.0, 93.86
54846.0, 94.97
54847.0, 93.69
54848.0, 94.06
54849.0, 94.64
54850.0, 94.24
54851.0, 93.11
54852.0, 93.63
54853.0, 93.58
54854.0, 93.67
54855.0, 92.92
54856.0, 93.38
54857.0, 91.10
54858.0, 93.82
54859.0, 94.19
54860.0, 95.87
54861.0, 96.34
54862.0, 95.67
54863.0, 95.39
54864.0, 95.66
54865.0, 96.57
54866.0, 96.26
54867.0, 96.93
54868.0, 96.95
54869.0, 95.34
54870.0, 94.34
54871.0, 96.78
54872.0, 95.41
54873.0, 96.23
54874.0, 95.09
54875.0, 96.66
54876.0, 96.80
54877.0, 96.58
54878.0, 95.98
54879.0, 96.05
54880.0, 96.13
54881.0, 95.60
54882.0, 98.24
54883.0, 96.61
54884.0, 95.41
54885.0, 96.34
54886.0, 96.55
54887.0, 97.15
54888.0, 96.23
54889.0, 95.66
54890.0, 97.42
54891.0, 96.56
54892.0, 97.45
54893.0, 96.41
54894.0, 97.08
54895.0, 97.30
54896.0, 97.22
54897.0, 96.36
54898.0, 98.71
54899.0, 97.91
54900.0, 98.39
54901.0, 97.66
54902.0, 98.25
54903.0, 97.99
54904.0, 97.61
54905.0, 98.85
54906.0, 98.67
54907.0, 99.52
54908.0, 98.54
54909.0, 100.44
54910.0, 99.32
54911.0, 99.52
54912.0, 100.72
54913.0, 98.75
54914.0, 98.58
54915.0, 98.50
54916.0, 97.44
54917.0, 97.83
54918.0, 95.20
54919.0, 97.10
54920.0, 98.58
54921.0, 97.04
54922.0, 96.45
54923.0, 96.90
54924.0, 96.90
54925.0, 96.88
54926.0, 95.94
54927.0, 95.67
54928.0, 95.40
54929.0, 95.20
54930.0, 95.58
54931.0, 95.67
54932.0, 96.74
54933.0, 98.48
54934.0, 97.28
54935.0, 95.73
54936.0, 96.51
54937.0, 96.40
54938.0, 97.23
54939.0, 95.89
54940.0, 96.71
54941.0, 98.15
54942.0, 96.99
54943.0, 98.97
54944.0, 96.73
54945.0, 97.07
54946.0, 97.20
54947.0, 97.53
54948.0, 97.15
54949.0, 96.85
54950.0, 98.27
54951.0, 97.41
54952.0, 96.56
54953.0, 97.81
54954.0, -9999.00
54955.0, -9999.00
54956.0, -9999.00
54957.0, -9999.00
54958.0, -9999.00
54959.0, -9999.00
54960.0, -9999.00
54961.0, -9999.00
54962.0, -9999.00
54963.0, -9999.00
54964.0, -9999.00
54965.0, -9999.00
54966.0, -9999.00
54967.0, -9999.00
54968.0, -9999.00
54969.0, -9999.00
54970.0, -9999.00
54971.0, -9999.00
54972.0, -9999.00
54973.0, -9999.00
54974.0, -9999.00
54975.0, -9999.00
54976.0, -9999.00
54977.0, -9999.00
54978.0, -9999.00
54979.0, -9999.00
54980.0, 97.01
54981.0, 97.23
54982.0, 97.62
54983.0, 98.23
54984.0, 97.49
54985.0, 98.40
54986.0, 97.98
54987.0, 96.70
54988.0, 97.09
54989.0, 98.55
54990.0, 97.95
54991.0, 97.93
54992.0, 97.43
54993.0, 98.26
54994.0, 98.12
54995.0, 98.78
54996.0, 98.37
54997.0, 97.60
54998.0, 97.89
54999.0, 98.18
55000.0, 97.93
55001.0, 97.98
55002.0, 98.47
55003.0, 97.39
55004.0, 97.65
55005.0, 97.52
55006.0, 97.86
55007.0, 96.95
55008.0, 97.23
55009.0, 97.07
55010.0, 96.64
55011.0, 97.36
55012.0, 97.89
55013.0, 96.56
55014.0, 97.90
55015.0, 96.61
55016.0, 99.00
55017.0, 98.45
55018.0, 98.38
55019.0, 97.99
55020.0, 97.55
55021.0, 96.80
55022.0, 97.20
55023.0, 97.50
55024.0, 97.53
55025.0, 97.43
55026.0, 96.97
55027.0, 95.45
55028.0, 95.32
55029.0, 95.45
55030.0, 97.03
55031.0, 97.01
55032.0, 97.06
55033.0, 96.42
55034.0, 96.71
55035.0, 96.08
55036.0, 96.44
55037.0, 97.33
55038.0, 96.85
55039.0, 98.15
55040.0, 98.25
55041.0, 98.13
55042.0, 98.39
55043.0, 98.76
55044.0, 98.36
55045.0, 98.85
55046.0, 97.43
55047.0, 97.86
55048.0, 97.91
55049.0, 99.31
55050.0, 98.51
55051.0, 98.77
55052.0, 99.27
55053.0, 98.97
55054.0, 98.13
55055.0, 98.71
55056.0, 98.67
55057.0, 98.45
55058.0, 97.13
55059.0, 98.37
55060.0, 98.32
55061.0, 97.89
55062.0, 97.77
55063.0, 98.78
55064.0, 98.34
55065.0, 97.63
55066.0, 98.05
55067.0, 98.84
55068.0, 98.55
55069.0, 98.14
55070.0, 98.40
55071.0, 98.34
55072.0, 98.31
55073.0, 98.68
55074.0, 99.47
55075.0, 100.21
55076.0, 100.71
55077.0, 100.05
55078.0, 99.68
55079.0, 100.10
55080.0, 99.26
55081.0, 98.68
55082.0, 99.93
55083.0, 101.11
55084.0, 100.76
55085.0, 99.86
55086.0, 100.28
55087.0, 100.32
55088.0, 100.74
55089.0, 102.03
55090.0, 102.02
55091.0, 100.87
55092.0, 100.35
55093.0, 100.06
55094.0, 100.59
55095.0, 100.88
55096.0, 100.68
55097.0, 99.61
55098.0, 100.95
55099.0, 101.06
55100.0, 101.38
55101.0, 100.33
55102.0, 99.62
55103.0, 99.99
55104.0, 99.40
55105.0, 101.40
55106.0, 100.63
55107.0, 100.30
55108.0, 101.68
55109.0, 102.64
55110.0, 99.78
55111.0, 100.64
55112.0, 99.85
55113.0, 101.27
55114.0, 100.28
55115.0, 101.28
55116.0, 100.11
55117.0, 99.16
55118.0, 101.00
55119.0, 99.00
55120.0, 99.26
55121.0, 98.50
55122.0, 98.96
55123.0, 98.32
55124.0, 100.19
55125.0, 97.63
55126.0, 99.43
55127.0, 98.31
55128.0, 97.98
55129.0, 98.39
55130.0, 98.72
55131.0, 97.91
55132.0, 97.85
55133.0, 97.60
55134.0, 98.21
55135.0, 99.39
55136.0, 98.96
55137.0, 97.35
55138.0, 97.50
55139.0, 98.34
55140.0, 98.05
55141.0, 98.09
55142.0, 98.53
55143.0, 96.92
55144.0, 98.46
55145.0, 96.56
55146.0, 96.69
55147.0, 96.59
55148.0, 96.04
55149.0, 96.17
55150.0, 97.01
55151.0, 97.19
55152.0, 97.01
55153.0, 95.63
55154.0, 96.02
55155.0, 95.90
55156.0, 96.18
55157.0, 95.87
55158.0, 95.78
55159.0, 96.13
55160.0, 96.92
55161.0, 94.53
55162.0, 95.55
55163.0, 95.67
55164.0, 96.90
55165.0, 96.26
55166.0, 96.63
55167.0, 96.23
55168.0, 96.00
55169.0, 96.27
55170.0, 95.65
55171.0, 95.14
55172.0, 94.46
55173.0, 96.07
55174.0, 96.05
55175.0, 96.67
55176.0, 96.61
55177.0, 96.66
55178.0, 96.03
55179.0, 96.52
55180.0, 96.58
55181.0, 96.19
55182.0, 95.93
55183.0, 95.83
55184.0, 95.73
55185.0, 95.62
55186.0, 96.79
55187.0, 95.81
55188.0, 96.60
55189.0, 97.01
55190.0, 96.56
55191.0, 95.91
55192.0, 96.38
55193.0, 96.79
55194.0, 96.36
55195.0, 97.02
55196.0, 95.67
55197.0, 96.27
55198.0, 97.07
55199.0, 96.88
55200.0, 96.10
55201.0, 95.85
55202.0, 96.39
55203.0, 96.14
55204.0, 97.64
55205.0, 97.75
55206.0, 97.62
55207.0, 96.93
55208.0, 98.28
55209.0, 97.26
55210.0, 97.59
55211.0, 98.33
55212.0, 98.02
55213.0, 97.65
55214.0, 96.96
55215.0, 98.20
55216.0, 96.06
55217.0, 97.27
55218.0, 97.67
55219.0, 97.76
55220.0, 97.60
55221.0, 98.02
55222.0, 98.07
55223.0, 98.41
55224.0, 97.96
55225.0, 97.52
55226.0, 97.93
55227.0, 98.49
55228.0, 97.27
55229.0, 97.85
55230.0, 97.84
55231.0, 98.65
55232.0, 100.06
55233.0, 104.05
55234.0, 105.17
55235.0, 104.51
55236.0, 100.78
55237.0, 102.85
55238.0, 103.97
55239.0, 101.56
55240.0, 96.13
55241.0, 95.45
55242.0, 95.23
55243.0, 93.97
55244.0, 94.65
55245.0, 95.31
55246.0, 93.27
55247.0, 94.41
55248.0, 95.45
55249.0, 94.74
55250.0, 94.25
55251.0, 94.08
55252.0, 94.87
55253.0, 94.53
55254.0, 95.25
55255.0, 94.22
55256.0, 93.59
55257.0, 94.29
55258.0, 94.31
55259.0, 93.26
55260.0, 93.15
55261.0, 93.83
55262.0, 94.93
55263.0, 94.09
55264.0, 93.91
55265.0, 94.29
55266.0, 94.32
55267.0, 94.28
55268.0, 93.11
55269.0, 94.82
55270.0, 94.61
55271.0, 93.13
55272.0, 93.56
55273.0, 93.25
55274.0, 93.48
55275.0, 93.66
55276.0, 92.64
55277.0, 94.42
55278.0, 93.82
55279.0, 93.44
55280.0, 93.08
55281.0, 92.24
55282.0, 90.96
55283.0, 92.82
55284.0, 92.72
55285.0, 93.01
55286.0, 92.78
55287.0, 93.42
55288.0, 92.78
55289.0, 93.90
55290.0, 94.74
55291.0, 94.04
55292.0, 93.83
55293.0, 93.99
55294.0, 93.95
55295.0, 94.25
55296.0, 93.24
55297.0, 93.83
55298.0, 93.89
55299.0, 93.04
55300.0, 94.04
55301.0, 93.90
55302.0, 93.70
55303.0, 93.64
55304.0, 94.13
55305.0, 93.60
55306.0, 93.72
55307.0, 93.20
55308.0, 92.98
55309.0, 93.52
55310.0, 93.05
55311.0, 93.01
55312.0, 93.62
55313.0, 93.64
55314.0, 94.01
55315.0, 92.32
55316.0, 93.13
55317.0, 93.14
55318.0, 93.29
55319.0, 94.65
55320.0, 93.46
55321.0, 91.85
55322.0, 93.68
55323.0, 93.46
55324.0, 92.37
55325.0, 92.97
55326.0, 92.82
55327.0, 94.26
55328.0, 92.51
55329.0, 93.13
55330.0, 93.11
55331.0, 91.70
55332.0, 92.47
55333.0, 93.36
55334.0, 92.91
55335.0, 93.23
55336.0, 93.17
55337.0, 92.78
55338.0, 93.63
55339.0, 93.26
55340.0, 92.39
55341.0, 93.00
55342.0, 92.51
55343.0, 93.51
55344.0, 92.73
55345.0, 93.55
55346.0, 93.28
55347.0, 92.33
55348.0, 93.86
55349.0, 92.40
55350.0, 92.45
55351.0, 92.96
55352.0, 92.60
55353.0, 92.08
55354.0, 92.28
55355.0, 91.18
55356.0, 92.75
55357.0, 92.21
55358.0, 93.04
55359.0, 94.38
55360.0, 93.47
55361.0, 93.14
55362.0, 93.40
55363.0, 93.10
55364.0, 92.94
55365.0, 93.62
55366.0, 93.24
55367.0, 93.86
55368.0, 93.31
55369.0, 93.80
55370.0, 93.87
55371.0, 93.52
55372.0, 93.43
55373.0, 93.74
55374.0, 93.97
55375.0, 94.01
55376.0, 93.98
55377.0, 93.99
55378.0, 94.35
55379.0, 93.59
55380.0, 93.55
55381.0, 95.22
55382.0, 94.23
55383.0, 94.36
55384.0, 94.28
55385.0, 94.90
55386.0, 93.79
55387.0, 93.98
55388.0, 92.74
55389.0, 94.74
55390.0, 95.05
55391.0, 94.65
55392.0, 93.93
55393.0, 94.44
55394.0, 94.82
55395.0, 94.28
55396.0, 94.30
55397.0, 93.40
55398.0, 94.29
55399.0, 93.35
55400.0, 94.18
55401.0, 94.34
55402.0, 93.09
55403.0, 94.18
55404.0, 95.09
55405.0, 94.61
55406.0, 93.86
55407.0, 94.79
55408.0, 94.72
55409.0, 94.36
55410.0, 94.19
55411.0, 94.19
55412.0, 94.19
55413.0, 94.31
55414.0, 94.61
55415.0, 94.04
55416.0, 95.35
55417.0, 94.53
55418.0, 93.95
55419.0, 93.97
55420.0, 94.14
55421.0, 93.41
55422.0, 92.69
55423.0, 92.72
55424.0, 91.83
55425.0, 92.35
55426.0, 93.62
55427.0, 92.57
55428.0, 93.77
55429.0, 93.50
55430.0, 94.04
55431.0, 93.71
55432.0, 93.47
55433.0, 93.33
55434.0, 93.39
55435.0, 92.41
55436.0, 93.83
55437.0, 92.47
55438.0, 92.57
55439.0, 92.11
55440.0, 91.52
55441.0, 90.76
55442.0, 91.91
55443.0, 93.23
55444.0, 92.24
55445.0, 92.99
55446.0, 92.85
55447.0, 94.00
55448.0, 93.89
55449.0, 93.37
55450.0, 93.60
55451.0, 93.92
55452.0, 93.17
55453.0, 94.07
55454.0, 93.45
55455.0, 93.69
55456.0, 93.70
55457.0, 93.07
55458.0, 93.38
55459.0, 93.58
55460.0, 92.64
55461.0, 92.71
55462.0, 92.99
55463.0, 92.18
55464.0, 92.99
55465.0, 92.83
55466.0, 93.42
55467.0, 93.20
55468.0, 93.57
55469.0, 92.83
55470.0, 94.13
55471.0, 94.03
55472.0, 93.23
55473.0, 92.74
55474.0, 94.52
55475.0, 93.81
55476.0, 94.29
55477.0, 94.44
55478.0, 94.13
55479.0, 93.04
55480.0, 93.51
55481.0, 93.57
55482.0, 94.64
55483.0, 94.13
55484.0, 93.94
55485.0, 93.85
55486.0, 93.55
55487.0, 93.51
55488.0, 94.37
55489.0, 93.79
55490.0, 93.49
55491.0, 93.63
55492.0, 94.11
55493.0, 92.85
55494.0, 94.30
55495.0, 94.18
55496.0, 93.13
55497.0, 93.17
55498.0, 93.77
55499.0, 93.49
55500.0, 93.04
55501.0, 94.05
55502.0, 92.67
55503.0, 94.92
55504.0, 92.98
55505.0, 93.53
55506.0, 92.99
55507.0, 93.40
55508.0, 93.83
55509.0, 94.36
55510.0, 93.36
55511.0, 92.61
55512.0, 93.38
55513.0, 93.35
55514.0, 93.49
55515.0, 93.83
55516.0, 93.18
55517.0, 93.27
55518.0, 93.97
55519.0, 93.97
55520.0, 93.74
55521.0, 94.65
55522.0, 94.70
55523.0, 93.06
55524.0, 94.47
55525.0, 94.03
55526.0, 93.50
55527.0, 93.41
55528.0, 93.86
55529.0, 94.08
55530.0, 95.16
55531.0, 94.69
55532.0, 93.48
55533.0, 93.09
55534.0, 93.69
55535.0, 94.72
55536.0, 94.47
55537.0, 94.16
55538.0, 93.13
55539.0, 93.85
55540.0, 94.71
55541.0, 92.75
55542.0, 93.32
55543.0, 93.49
55544.0, 93.96
55545.0, 94.81
55546.0, 93.47
55547.0, 94.53
55548.0, 94.18
55549.0, 95.08
55550.0, 93.80
55551.0, 93.72
55552.0, 94.41
55553.0, 93.19
55554.0, 93.54
55555.0, 93.06
55556.0, 93.15
55557.0, 93.79
55558.0, 91.89
55559.0, 92.65
55560.0, 93.42
55561.0, 94.14
55562.0, 93.12
55563.0, 93.17
55564.0, 93.24
55565.0, 92.86
55566.0, 93.86
55567.0, 93.12
55568.0, 93.54
55569.0, 92.86
55570.0, 93.40
55571.0, 93.35
55572.0, 92.51
55573.0, 93.43
55574.0, 92.31
55575.0, 93.00
55576.0, 92.68
55577.0, 92.55
55578.0, 92.99
55579.0, 93.65
55580.0, 93.16
55581.0, 93.10
55582.0, 93.89
55583.0, 93.19
55584.0, 92.60
55585.0, 92.93
55586.0, 92.70
55587.0, 92.91
55588.0, 92.53
55589.0, 92.11
55590.0, 91.88
55591.0, 92.08
55592.0, 92.72
55593.0, 92.00
55594.0, 92.70
55595.0, 93.78
55596.0, 93.02
55597.0, 92.72
55598.0, 93.60
55599.0, 93.08
55600.0, 93.13
55601.0, 93.08
55602.0, 93.50
55603.0, 93.68
55604.0, 93.30
55605.0, 93.28
55606.0, 93.48
55607.0, 93.86
55608.0, 92.10
55609.0, 93.56
55610.0, 93.03
55611.0, 92.41
55612.0, 93.02
55613.0, 93.09
55614.0, 94.54
55615.0, 93.52
55616.0, 93.91
55617.0, 94.57
55618.0, 93.61
55619.0, 93.12
55620.0, 93.79
55621.0, 94.50
55622.0, 92.57
55623.0, 93.27
55624.0, 92.68
55625.0, 94.21
55626.0, 92.37
55627.0, 94.30
55628.0, 94.54
55629.0, 93.60
55630.0, 93.59
55631.0, 93.84
55632.0, 93.86
55633.0, 93.19
55634.0, 93.38
55635.0, 93.88
55636.0, 94.16
55637.0, 93.26
55638.0, 94.16
55639.0, 94.10
55640.0, 94.99
55641.0, 94.25
55642.0, 94.38
55643.0, 93.95
55644.0, 94.88
55645.0, 93.53
55646.0, 93.89
55647.0, 93.50
55648.0, 93.92
55649.0, 93.80
55650.0, 94.75
55651.0, 94.09
55652.0, 93.65
55653.0, 94.31
55654.0, 91.99
55655.0, 94.36
55656.0, 94.05
55657.0, 93.63
55658.0, 93.91
55659.0, 94.44
55660.0, 93.79
55661.0, 94.30
55662.0, 93.96
55663.0, 94.60
55664.0, 94.78
55665.0, 94.93
55666.0, 95.11
55667.0, 94.72
55668.0, 95.45
55669.0, 95.36
55670.0, 94.56
55671.0, 94.69
55672.0, 94.51
55673.0, 94.97
55674.0, 95.12
55675.0, 95.10
55676.0, 94.02
55677.0, 95.39
55678.0, 95.12
55679.0, 94.65
55680.0, 95.96
55681.0, 94.96
55682.0, 95.49
55683.0, 95.23
55684.0, 95.10
55685.0, 94.24
55686.0, 95.42
55687.0, 94.25
55688.0, 94.78
55689.0, 95.03
55690.0, 94.72
55691.0, 94.79
55692.0, 94.56
55693.0, 94.69
55694.0, 95.16
55695.0, 96.39
55696.0, 95.65
55697.0, 94.91
55698.0, 95.37
55699.0, 95.45
55700.0, 94.96
55701.0, 95.30
55702.0, 95.92
55703.0, 94.79
55704.0, 95.21
55705.0, 94.32
55706.0, 95.50
55707.0, 95.88
55708.0, 95.12
55709.0, 95.70
55710.0, 95.81
55711.0, 95.46
55712.0, 95.94
55713.0, 94.52
55714.0, 95.35
55715.0, 94.36
55716.0, 94.36
55717.0, 95.50
55718.0, 95.59
55719.0, 96.73
55720.0, 95.74
55721.0, 95.78
55722.0, 95.71
55723.0, 95.97
55724.0, 95.47
55725.0, 93.31
55726.0, 92.67
55727.0, 92.68
55728.0, 92.57
55729.0, 92.26
55730.0, 94.56
55731.0, 92.89
55732.0, 93.60
55733.0, 93.92
55734.0, 93.22
55735.0, 93.11
55736.0, 92.90
55737.0, 93.83
55738.0, 94.63
55739.0, 93.45
55740.0, 93.74
55741.0, 93.57
55742.0, 93.31
55743.0, 93.84
55744.0, 94.74
55745.0, 94.67
55746.0, 93.76
55747.0, 94.04
55748.0, 94.09
55749.0, 94.13
55750.0, 94.19
55751.0, 94.17
55752.0, 93.28
55753.0, 95.19
55754.0, 94.15
55755.0, 93.70
55756.0, 93.93
55757.0, 94.25
55758.0, 94.15
55759.0, 93.90
55760.0, 94.34
55761.0, 94.23
55762.0, 94.84
55763.0, 94.62
55764.0, 93.81
55765.0, 94.81
55766.0, 95.05
55767.0, 94.47
55768.0, 94.17
55769.0, 94.21
55770.0, 93.95
55771.0, 92.67
55772.0, 94.03
55773.0, 93.67
55774.0, 94.37
55775.0, 93.65
55776.0, 93.44
55777.0, 93.91
55778.0, 93.95
55779.0, 94.87
55780.0, 94.23
55781.0, 93.84
55782.0, 94.26
55783.0, 94.18
55784.0, 93.59
55785.0, 93.73
55786.0, 93.40
55787.0, 93.23
55788.0, 93.28
55789.0, 92.76
55790.0, 94.26
55791.0, 91.71
55792.0, 93.07
55793.0, 93.05
55794.0, 93.26
55795.0, 93.24
55796.0, 93.25
55797.0, 94.35
55798.0, 93.40
55799.0, 95.14
55800.0, 94.43
55801.0, 94.21
55802.0, 94.79
55803.0, 93.44
55804.0, 94.27
55805.0, 94.27
55806.0, 94.48
55807.0, 94.54
55808.0, 95.23
55809.0, 95.18
55810.0, 95.12
55811.0, 95.75
55812.0, 95.50
55813.0, 93.73
55814.0, 95.11
55815.0, 94.79
55816.0, 94.58
55817.0, 95.03
55818.0, 93.70
55819.0, 94.51
55820.0, 94.90
55821.0, 94.96
55822.0, 94.73
55823.0, 95.56
55824.0, 96.21
55825.0, 96.47
55826.0, 95.50
55827.0, 96.56
55828.0, 94.91
55829.0, 95.46
55830.0, 96.33
55831.0, 96.14
55832.0, 96.23
55833.0, 95.57
55834.0, -9999.00
55835.0, -9999.00
55836.0, -9999.00
55837.0, -9999.00
55838.0, -9999.00
55839.0, -9999.00
55840.0, -9999.00
55841.0, -9999.00
55842.0, -9999.00
55843.0, -9999.00
55844.0, -9999.00
55845.0, -9999.00
55846.0, -9999.00
55847.0, -9999.00
55848.0, -9999.00
55849.0, -9999.00
55850.0, -9999.00
55851.0, -9999.00
55852.0, -9999.00
55853.0, -9999.00
55854.0, -9999.00
55855.0, -9999.00
55856.0, -9999.00
55857.0, -9999.00
55858.0, -9999.00
55859.0, -9999.00
55860.0, 94.68
55861.0, 94.16
55862.0, 95.59
55863.0, 94.26
55864.0, 94.40
55865.0, 93.93
55866.0, 95.81
55867.0, 94.79
55868.0, 93.43
55869.0, 92.63
55870.0, 93.48
55871.0, 92.95
55872.0, 94.16
55873.0, 94.66
55874.0, -9999.00
55875.0, -9999.00
55876.0, -9999.00
55877.0, -9999.00
55878.0, -9999.00
55879.0, -9999.00
55880.0, -9999.00
55881.0, -9999.00
55882.0, -9999.00
55883.0, -9999.00
55884.0, -9999.00
55885.0, -9999.00
55886.0, -9999.00
55887.0, -9999.00
55888.0, -9999.00
55889.0, -9999.00
55890.0, -9999.00
55891.0, -9999.00
55892.0, -9999.00
55893.0, -9999.00
55894.0, -9999.00
55895.0, -9999.00
55896.0, -9999.00
55897.0, -9999.00
55898.0, -9999.00
55899.0, -9999.00
55900.0, -9999.00
55901.0, -9999.00
55902.0, -9999.00
55903.0, -9999.00
55904.0, 97.43
55905.0, 96.63
55906.0, 96.27
55907.0, 97.15
55908.0, 96.12
55909.0, 96.74
55910.0, 97.13
55911.0, 96.70
55912.0, 96.79
55913.0, 97.35
55914.0, 97.06
55915.0, 95.91
55916.0, 96.79
55917.0, 95.15
55918.0, 96.12
55919.0, 96.26
55920.0, 96.41
55921.0, 95.48
55922.0, 95.08
55923.0, 94.68
55924.0, 94.48
55925.0, 94.10
55926.0, 94.55
55927.0, 95.50
55928.0, 94.62
55929.0, 92.85
55930.0, 93.15
55931.0, 94.68
55932.0, 94.30
55933.0, 94.31
55934.0, 94.07
55935.0, 93.58
55936.0, 94.92
55937.0, 95.04
55938.0, 95.32
55939.0, 94.56
55940.0, 93.62
55941.0, 94.69
55942.0, 95.28
55943.0, 95.19
55944.0, 94.84
55945.0, 95.53
55946.0, 95.84
55947.0, 96.89
55948.0, 96.42
55949.0, 95.81
55950.0, 97.20
55951.0, 95.61
55952.0, 97.66
55953.0, 97.32
55954.0, 96.36
55955.0, 95.65
55956.0, 95.71
55957.0, 96.94
55958.0, 95.24
55959.0, 93.68
55960.0, 95.07
55961.0, 94.23
55962.0, 94.71
55963.0, 95.01
55964.0, 94.79
55965.0, 95.31
55966.0, 94.36
55967.0, 94.46
55968.0, 95.46
55969.0, 95.16
55970.0, 96.63
55971.0, 97.10
55972.0, 95.26
55973.0, 95.70
55974.0, 96.07
55975.0, 95.40
55976.0, 95.68
55977.0, 96.55
55978.0, 95.34
55979.0, 94.19
55980.0, 95.09
55981.0, 96.12
55982.0, 95.88
55983.0, 95.92
55984.0, 96.29
55985.0, 95.52
55986.0, 95.45
55987.0, 96.14
55988.0, 95.91
55989.0, 96.96
55990.0, 94.71
55991.0, 95.93
55992.0, 95.57
55993.0, 96.41
55994.0, 95.94
55995.0, 96.50
55996.0, 96.98
55997.0, 96.40
55998.0, 96.38
55999.0, 95.03
56000.0, 95.53
56001.0, 94.80
56002.0, 95.64
56003.0, 96.23
56004.0, 95.17
56005.0, 96.63
56006.0, 96.60
56007.0, 96.60
56008.0, 97.10
56009.0, 98.68
56010.0, 98.87
56011.0, 98.09
56012.0, 96.60
56013.0, 98.37
56014.0, 97.16
56015.0, 97.55
56016.0, 97.84
56017.0, 97.94
56018.0, 98.86
56019.0, 97.99
56020.0, 96.94
56021.0, 98.21
56022.0, 97.66
56023.0, 99.27
56024.0, 98.60
56025.0, 98.87
56026.0, 98.56
56027.0, 98.35
56028.0, 98.86
56029.0, 99.89
56030.0, 99.32
56031.0, 99.28
56032.0, 100.34
56033.0, 99.99
56034.0, 99.51
56035.0, 98.84
56036.0, 98.87
56037.0, 99.30
56038.0, 100.09
56039.0, 98.47
56040.0, 99.60
56041.0, 99.13
56042.0, 99.23
56043.0, 98.16
56044.0, 97.99
56045.0, 97.60
56046.0, 98.53
56047.0, 97.13
56048.0, 98.51
56049.0, 98.90
56050.0, 98.16
56051.0, 98.70
56052.0, 98.66
56053.0, 98.89
56054.0, 98.65
56055.0, 98.52
56056.0, 99.46
56057.0, 98.40
56058.0, 98.92
56059.0, 99.30
56060.0, 98.34
56061.0, 99.86
56062.0, 98.84
56063.0, 97.93
56064.0, 98.58
56065.0, 98.69
56066.0, 97.92
56067.0, 98.36
56068.0, 98.06
56069.0, 98.04
56070.0, 96.25
56071.0, 99.14
56072.0, 98.17
56073.0, 97.01
56074.0, 95.35
56075.0, 96.23
56076.0, 96.08
56077.0, 95.71
56078.0, 95.94
56079.0, 95.51
56080.0, 95.97
56081.0, 98.05
56082.0, 96.91
56083.0, 96.26
56084.0, 95.62
56085.0, 97.13
56086.0, 96.36
56087.0, 95.79
56088.0, 97.03
56089.0, 97.65
56090.0, 96.91
56091.0, 98.85
56092.0, 98.36
56093.0, 97.88
56094.0, 98.89
56095.0, 97.38
56096.0, 98.31
56097.0, 98.28
56098.0, 97.50
56099.0, 97.95
56100.0, 98.33
56101.0, 98.35
56102.0, 98.80
56103.0, 98.13
56104.0, 97.88
56105.0, 98.05
56106.0, 99.21
56107.0, 99.28
56108.0, 99.68
56109.0, 98.77
56110.0, 98.82
56111.0, 99.01
56112.0, 99.53
56113.0, 99.72
56114.0, 99.06
56115.0, 98.65
56116.0, 100.24
56117.0, 100.69
56118.0, 100.84
56119.0, 100.83
56120.0, 100.65
56121.0, 99.03
56122.0, 100.60
56123.0, 99.99
56124.0, 101.55
56125.0, 102.67
56126.0, 102.15
56127.0, 101.86
56128.0, 102.06
56129.0, 102.25
56130.0, 101.77
56131.0, 101.21
56132.0, 102.33
56133.0, 102.46
56134.0, 101.47
56135.0, 102.67
56136.0, 101.26
56137.0, 102.61
56138.0, 101.90
56139.0, 102.78
56140.0, 101.51
56141.0, 102.05
56142.0, 101.25
56143.0, 102.15
56144.0, 103.77
56145.0, 103.14
56146.0, 102.63
56147.0, 103.26
56148.0, 102.53
56149.0, 102.48
56150.0, 103.46
56151.0, 102.50
56152.0, 103.00
56153.0, 103.57
56154.0, 103.36
56155.0, 103.30
56156.0, 103.06
56157.0, 103.57
56158.0, 104.25
56159.0, 102.76
56160.0, 102.67
56161.0, 101.65
56162.0, 102.18
56163.0, 102.49
56164.0, 103.96
56165.0, 102.66
56166.0, 103.11
56167.0, 102.10
56168.0, 102.04
56169.0, 103.63
56170.0, 103.49
56171.0, 103.93
56172.0, 103.97
56173.0, 104.51
56174.0, 103.31
56175.0, 100.53
56176.0, 98.86
56177.0, 100.58
56178.0, 101.47
56179.0, 101.37
56180.0, 101.91
56181.0, 100.87
56182.0, 99.75
56183.0, 100.28
56184.0, 101.18
56185.0, 101.30
56186.0, 100.67
56187.0, 101.09
56188.0, 101.81
56189.0, 102.49
56190.0, 101.67
56191.0, 102.11
56192.0, 101.83
56193.0, 102.34
56194.0, 102.21
56195.0, 101.17
56196.0, 101.15
56197.0, 100.38
56198.0, 102.01
56199.0, 100.62
56200.0, 100.89
56201.0, 101.85
56202.0, 101.15
56203.0, 102.44
56204.0, 100.96
56205.0, 100.75
56206.0, 101.18
56207.0, 100.18
56208.0, 101.58
56209.0, 101.60
56210.0, 100.00
56211.0, 100.31
56212.0, 101.30
56213.0, 100.15
56214.0, 99.63
56215.0, 100.61
56216.0, 100.23
56217.0, 100.03
56218.0, 100.13
56219.0, 100.43
56220.0, 99.93
56221.0, 99.81
56222.0, 99.88
56223.0, 101.19
56224.0, 99.96
56225.0, 99.53
56226.0, 100.23
56227.0, 99.21
56228.0, 98.40
56229.0, 99.57
56230.0, 99.41
56231.0, 99.27
56232.0, 99.04
56233.0, 98.35
56234.0, 98.42
56235.0, 98.48
56236.0, 98.70
56237.0, 98.16
56238.0, 97.65
56239.0, 97.76
56240.0, 97.12
56241.0, 97.69
56242.0, 97.77
56243.0, 98.92
56244.0, 99.31
56245.0, 100.40
56246.0, 99.37
56247.0, 98.76
56248.0, 99.05
56249.0, 98.66
56250.0, 100.19
56251.0, 101.19
56252.0, 99.85
56253.0, 99.81
56254.0, 99.38
56255.0, 99.18
56256.0, 99.71
56257.0, 98.45
56258.0, 99.05
56259.0, 97.82
56260.0, 100.11
56261.0, 99.75
56262.0, 100.24
56263.0, 100.19
56264.0, 99.53
56265.0, 99.45
56266.0, 99.61
56267.0, 99.93
56268.0, 100.29
56269.0, 99.74
56270.0, 99.28
56271.0, 99.42
56272.0, 99.55
56273.0, 100.98
56274.0, 100.26
56275.0, 99.93
56276.0, 99.98
56277.0, 99.58
56278.0, 99.35
56279.0, 99.82
56280.0, 99.50
56281.0, 99.65
56282.0, 99.90
56283.0, 99.61
56284.0, 99.74
56285.0, 100.29
56286.0, 100.11
56287.0, 100.25
56288.0, 99.22
56289.0, 99.20
56290.0, 99.32
56291.0, 100.29
56292.0, 99.97
56293.0, 100.41
56294.0, 99.72
56295.0, 99.66
56296.0, 99.33
56297.0, 99.09
56298.0, 99.24
56299.0, 98.37
56300.0, 100.14
56301.0, 100.20
56302.0, 97.81
56303.0, 98.35
56304.0, 98.75
56305.0, 98.89
56306.0, 99.07
56307.0, 99.57
56308.0, 98.85
56309.0, 99.77
56310.0, 98.18
56311.0, 98.85
56312.0, 98.46
56313.0, 100.01
56314.0, 100.06
56315.0, 98.56
56316.0, 99.88
56317.0, 99.67
56318.0, 98.81
56319.0, 98.92
56320.0, 99.75
56321.0, 98.73
56322.0, 99.10
56323.0, 97.70
56324.0, 99.27
56325.0, 97.06
56326.0, 98.25
56327.0, 98.11
56328.0, 97.81
56329.0, 97.81
56330.0, 97.76
56331.0, 98.60
56332.0, 97.92
56333.0, 98.66
56334.0, 99.18
56335.0, 98.79
56336.0, 98.36
56337.0, 97.96
56338.0, 99.93
56339.0, 98.77
56340.0, 98.04
56341.0, 98.05
56342.0, 98.67
56343.0, 97.95
56344.0, 98.45
56345.0, 97.90
56346.0, 97.94
56347.0, 97.91
56348.0, 97.98
56349.0, 98.32
56350.0, 98.22
56351.0, 97.84
56352.0, 97.75
56353.0, 99.24
56354.0, 99.62
56355.0, 97.97
56356.0, 98.67
56357.0, 98.51
56358.0, 97.62
56359.0, 98.10
56360.0, 99.81
56361.0, 99.02
56362.0, 99.07
56363.0, 100.32
56364.0, 100.79
56365.0, 97.83
56366.0, 98.49
56367.0, 98.35
56368.0, 97.34
56369.0, 98.09
56370.0, 96.82
56371.0, 98.27
56372.0, 98.04
56373.0, 98.90
56374.0, 98.15
56375.0, 98.58
56376.0, 99.40
56377.0, 99.70
56378.0, 98.67
56379.0, 99.36
56380.0, 99.02
56381.0, 99.25
56382.0, 99.16
56383.0, 99.65
56384.0, 99.04
56385.0, 98.76
56386.0, 98.12
56387.0, 99.69
56388.0, 100.03
56389.0, 98.83
56390.0, 98.99
56391.0, 99.05
56392.0, 98.40
56393.0, 98.64
56394.0, 98.24
56395.0, 98.23
56396.0, 98.74
56397.0, 98.16
56398.0, 97.88
56399.0, 97.91
56400.0, 97.54
56401.0, 96.57
56402.0, 96.94
56403.0, 97.06
56404.0, 96.75
56405.0, 96.72
56406.0, 97.11
56407.0, 96.54
56408.0, 95.37
56409.0, 96.99
56410.0, 96.30
56411.0, 96.86
56412.0, 97.41
56413.0, 96.93
56414.0, 96.74
56415.0, 95.90
56416.0, 96.66
56417.0, 96.75
56418.0, 95.86
56419.0, 96.21
56420.0, 96.74
56421.0, 96.86
56422.0, 96.27
56423.0, 95.67
56424.0, 96.84
56425.0, 96.53
56426.0, 96.71
56427.0, 96.38
56428.0, 96.04
56429.0, 96.33
56430.0, 96.63
56431.0, 96.18
56432.0, 96.24
56433.0, 96.77
56434.0, 97.42
56435.0, 98.00
56436.0, 97.51
56437.0, 98.81
56438.0, 97.43
56439.0, 96.86
56440.0, 97.58
56441.0, 97.56
56442.0, 97.68
56443.0, 96.84
56444.0, 96.86
56445.0, 97.42
56446.0, 97.07
56447.0, 97.57
56448.0, 96.95
56449.0, 97.84
56450.0, 98.25
56451.0, 98.29
56452.0, 97.28
56453.0, 97.96
56454.0, 98.24
56455.0, 97.49
56456.0, 96.86
56457.0, 97.93
56458.0, 97.19
56459.0, 97.53
56460.0, 97.38
56461.0, 96.98
56462.0, 97.22
56463.0, 97.54
56464.0, 97.13
56465.0, 97.09
56466.0, 97.69
56467.0, 98.26
56468.0, 96.51
56469.0, 97.97
56470.0, 97.79
56471.0, 97.81
56472.0, 98.34
56473.0, 96.63
56474.0, 96.75
56475.0, 97.45
56476.0, 97.26
56477.0, 96.82
56478.0, 96.19
56479.0, 96.39
56480.0, 96.07
56481.0, 96.28
56482.0, 96.37
56483.0, 96.52
56484.0, 95.93
56485.0, 96.85
56486.0, 97.08
56487.0, 96.62
56488.0, 97.35
56489.0, 96.65
56490.0, 97.24
56491.0, 96.60
56492.0, 95.80
56493.0, 96.16
56494.0, 97.02
56495.0, 95.56
56496.0, 96.23
56497.0, 95.60
56498.0, 97.00
56499.0, 96.22
56500.0, 97.29
56501.0, 96.53
56502.0, 95.43
56503.0, 96.42
56504.0, 95.54
56505.0, 96.37
56506.0, 96.02
56507.0, 96.65
56508.0, 96.02
56509.0, 96.98
56510.0, 97.04
56511.0, 96.42
56512.0, 95.65
56513.0, 95.47
56514.0, 94.78
56515.0, 95.88
56516.0, 95.54
56517.0, 94.09
56518.0, 95.12
56519.0, 93.57
56520.0, 94.97
56521.0, 95.58
56522.0, 96.36
56523.0, 96.76
56524.0, 96.11
56525.0, 96.14
56526.0, 96.08
56527.0, 96.12
56528.0, 95.98
56529.0, 96.22
56530.0, 95.73
56531.0, 95.55
56532.0, 96.32
56533.0, 96.46
56534.0, 95.47
56535.0, 96.32
56536.0, 95.91
56537.0, 95.33
56538.0, 95.12
56539.0, 95.21
56540.0, 95.88
56541.0, 96.04
56542.0, 96.16
56543.0, 96.40
56544.0, 95.91
56545.0, 96.47
56546.0, 97.06
56547.0, 96.54
56548.0, 96.24
56549.0, 96.70
56550.0, 96.09
56551.0, 96.83
56552.0, 95.56
56553.0, 96.76
56554.0, 97.12
56555.0, 95.51
56556.0, 96.02
56557.0, 95.81
56558.0, 95.41
56559.0, 95.87
56560.0, 96.72
56561.0, 96.70
56562.0, 96.14
56563.0, 97.29
56564.0, 96.22
56565.0, 97.15
56566.0, 97.34
56567.0, 96.82
56568.0, 96.19
56569.0, 96.33
56570.0, 96.08
56571.0, 96.70
56572.0, 96.60
56573.0, 95.60
56574.0, 96.11
56575.0, 96.68
56576.0, 96.01
56577.0, 96.42
56578.0, 96.24
56579.0, 97.15
56580.0, 97.06
56581.0, 96.49
56582.0, 95.91
56583.0, 96.11
56584.0, 96.79
56585.0, 96.38
56586.0, 95.84
56587.0, 95.24
56588.0, 95.56
56589.0, 95.72
56590.0, 96.04
56591.0, 94.67
56592.0, 95.72
56593.0, 96.47
56594.0, 96.24
56595.0, 95.71
56596.0, 96.44
56597.0, 96.43
56598.0, 95.52
56599.0, 95.90
56600.0, 95.46
56601.0, 94.06
56602.0, 94.40
56603.0, 95.44
56604.0, 96.19
56605.0, 95.37
56606.0, 94.40
56607.0, 95.50
56608.0, 94.73
56609.0, 95.29
56610.0, 95.07
56611.0, 95.24
56612.0, 94.63
56613.0, 95.38
56614.0, 94.96
56615.0, 95.78
56616.0, 96.25
56617.0, 96.23
56618.0, 95.67
56619.0, 95.32
56620.0, 94.41
56621.0, 95.66
56622.0, 95.01
56623.0, 95.85
56624.0, 94.98
56625.0, 94.36
56626.0, 94.94
56627.0, 94.36
56628.0, 94.87
56629.0, 95.13
56630.0, 94.69
56631.0, 95.23
56632.0, 93.63
56633.0, 94.01
56634.0, 94.03
56635.0, 95.18
56636.0, 94.94
56637.0, 95.80
56638.0, 94.97
56639.0, 95.06
56640.0, 94.88
56641.0, 94.99
56642.0, 94.33
56643.0, 94.50
56644.0, 95.01
56645.0, 94.77
56646.0, 94.17
56647.0, 94.23
56648.0, 94.76
56649.0, 94.68
56650.0, 94.90
56651.0, 93.77
56652.0, 94.92
56653.0, 94.15
56654.0, 93.33
56655.0, 94.18
56656.0, 95.51
56657.0, 95.09
56658.0, 94.47
56659.0, 93.10
56660.0, 94.06
56661.0, 93.81
56662.0, 94.42
56663.0, 94.89
56664.0, 94.78
56665.0, 94.41
56666.0, 94.23
56667.0, 93.87
56668.0, 94.32
56669.0, 93.19
56670.0, 94.07
56671.0, 94.95
56672.0, 94.56
56673.0, 94.73
56674.0, 95.69
56675.0, 94.84
56676.0, 94.15
56677.0, 94.87
56678.0, 94.58
56679.0, 95.26
56680.0, 94.51
56681.0, 94.49
56682.0, 95.44
56683.0, 94.49
56684.0, 94.98
56685.0, 94.12
56686.0, 95.35
56687.0, 94.75
56688.0, 94.44
56689.0, 95.34
56690.0, 94.78
56691.0, 95.13
56692.0, 94.40
56693.0, 96.29
56694.0, 95.10
56695.0, 95.96
56696.0, 95.11
56697.0, 94.68
56698.0, 94.08
56699.0, 94.28
56700.0, 94.22
56701.0, 93.54
56702.0, 94.61
56703.0, 94.00
56704.0, 93.11
56705.0, 94.53
56706.0, 94.24
56707.0, 93.87
56708.0, 94.03
56709.0, 94.10
56710.0, 94.28
56711.0, 94.80
56712.0, 93.84
56713.0, 94.99
56714.0, -9999.00
56715.0, -9999.00
56716.0, -9999.00
56717.0, -9999.00
56718.0, -9999.00
56719.0, -9999.00
56720.0, -9999.00
56721.0, -9999.00
56722.0, -9999.00
56723.0, -9999.00
56724.0, -9999.00
56725.0, -9999.00
56726.0, -9999.00
56727.0, -9999.00
56728.0, -9999.00
56729.0, -9999.00
56730.0, -9999.00
56731.0, -9999.00
56732.0, -9999.00
56733.0, -9999.00
56734.0, -9999.00
56735.0, -9999.00
56736.0, -9999.00
56737.0, -9999.00
56738.0, -9999.00
56739.0, -9999.00
56740.0, 92.20
56741.0, 93.27
56742.0, 94.06
56743.0, 93.54
56744.0, 94.96
56745.0, 94.91
56746.0, 93.17
56747.0, 94.84
56748.0, 93.91
56749.0, 94.32
56750.0, 94.50
56751.0, 95.43
56752.0, 94.76
56753.0, 94.43
56754.0, 94.17
56755.0, 95.42
56756.0, 94.37
56757.0, 93.90
56758.0, 94.54
56759.0, 95.11
56760.0, 94.47
56761.0, 95.98
56762.0, 94.37
56763.0, 95.56
56764.0, 94.62
56765.0, 95.30
56766.0, 95.14
56767.0, 95.13
56768.0, 95.73
56769.0, 94.54
56770.0, 96.38
56771.0, 95.65
56772.0, 95.34
56773.0, 94.38
56774.0, 94.17
56775.0, 94.71
56776.0, 94.70
56777.0, 94.36
56778.0, 95.55
56779.0, 95.06
56780.0, 95.14
56781.0, 95.60
56782.0, 94.45
56783.0, 94.43
56784.0, 95.58
56785.0, 94.41
56786.0, 94.69
56787.0, 94.48
56788.0, 94.30
56789.0, 94.29
56790.0, 95.76
56791.0, 95.10
56792.0, 95.13
56793.0, 93.72
56794.0, 95.39
56795.0, 95.26
56796.0, 94.37
56797.0, 95.23
56798.0, 95.68
56799.0, 96.05
56800.0, 95.00
56801.0, 97.02
56802.0, 96.06
56803.0, 96.56
56804.0, 95.98
56805.0, 96.15
56806.0, 96.33
56807.0, 97.02
56808.0, 97.55
56809.0, 97.00
56810.0, 96.83
56811.0, 96.44
56812.0, 96.60
56813.0, 96.83
56814.0, 96.23
56815.0, 96.51
56816.0, 96.26
56817.0, 97.18
56818.0, 96.77
56819.0, 97.42
56820.0, 95.80
56821.0, 96.40
56822.0, 95.28
56823.0, 97.21
56824.0, 96.33
56825.0, 96.23
56826.0, 96.32
56827.0, 96.22
56828.0, 96.11
56829.0, 96.87
56830.0, 95.47
56831.0, 97.07
56832.0, 96.41
56833.0, 96.51
56834.0, 96.66
56835.0, 97.39
56836.0, 96.62
56837.0, 96.72
56838.0, 97.74
56839.0, 96.50
56840.0, 96.01
56841.0, 96.10
56842.0, 96.27
56843.0, 96.24
56844.0, 96.81
56845.0, 96.54
56846.0, 97.04
56847.0, 96.00
56848.0, 95.22
56849.0, 96.76
56850.0, 96.04
56851.0, 96.42
56852.0, 95.96
56853.0, 95.04
56854.0, 95.38
56855.0, 94.77
56856.0, 95.57
56857.0, 96.44
56858.0, 95.84
56859.0, 95.93
56860.0, 94.76
56861.0, 94.76
56862.0, 94.55
56863.0, 95.45
56864.0, 95.43
56865.0, 94.71
56866.0, 95.21
56867.0, 95.77
56868.0, 96.01
56869.0, 95.43
56870.0, 96.33
56871.0, 96.40
56872.0, 96.17
56873.0, 95.50
56874.0, 96.58
56875.0, 96.51
56876.0, 94.87
56877.0, 95.86
56878.0, 94.89
56879.0, 95.58
56880.0, 94.00
56881.0, 94.65
56882.0, 95.12
56883.0, 96.52
56884.0, 95.97
56885.0, 96.78
56886.0, 96.35
56887.0, 94.98
56888.0, 94.41
56889.0, 93.67
56890.0, 92.44
56891.0, 93.66
56892.0, 92.54
56893.0, 93.39
56894.0, 94.45
56895.0, 92.78
56896.0, 93.12
56897.0, 93.37
56898.0, 92.30
56899.0, 92.46
56900.0, 92.98
56901.0, 94.13
56902.0, 94.37
56903.0, 93.89
56904.0, 95.31
56905.0, 94.96
56906.0, 94.13
56907.0, 92.85
56908.0, 93.14
56909.0, 93.81
56910.0, 94.48
56911.0, 95.55
56912.0, 94.51
56913.0, 94.66
56914.0, 93.85
56915.0, 93.18
56916.0, 93.60
56917.0, 91.71
56918.0, 91.62
56919.0, 91.91
56920.0, 91.59
56921.0, 91.96
56922.0, 91.74
56923.0, 92.35
56924.0, 92.67
56925.0, 91.14
56926.0, 93.23
56927.0, 92.20
56928.0, 94.15
56929.0, 93.61
56930.0, 93.66
56931.0, 92.71
56932.0, 93.55
56933.0, 93.02
56934.0, 94.15
56935.0, 93.61
56936.0, 92.84
56937.0, 93.77
56938.0, 95.44
56939.0, 94.33
56940.0, 92.33
56941.0, 91.53
56942.0, 92.65
56943.0, 93.52
56944.0, 93.62
56945.0, 92.30
56946.0, 92.71
56947.0, 92.77
56948.0, 91.84
56949.0, 92.37
56950.0, 92.29
56951.0, 92.87
56952.0, 91.89
56953.0, 92.25
56954.0, 92.59
56955.0, 93.31
56956.0, 92.71
56957.0, 92.08
56958.0, 92.96
56959.0, 92.98
56960.0, 92.24
56961.0, 92.80
56962.0, 92.65
56963.0, 92.73
56964.0, 92.88
56965.0, 92.29
56966.0, 92.23
56967.0, 92.17
56968.0, 93.45
56969.0, 92.73
56970.0, 92.94
56971.0, 93.13
56972.0, 93.19
56973.0, 93.16
56974.0, 92.39
56975.0, 93.82
56976.0, 93.88
56977.0, 94.78
56978.0, 93.06
56979.0, 93.28
56980.0, 93.60
56981.0, 92.64
56982.0, 93.67
56983.0, 94.08
56984.0, 93.53
56985.0, 93.04
56986.0, 93.71
56987.0, 92.79
56988.0, 92.93
56989.0, 92.44
56990.0, 93.85
56991.0, 93.67
56992.0, 94.50
56993.0, 94.63
56994.0, 94.15
56995.0, 93.66
56996.0, 93.33
56997.0, 91.79
56998.0, 93.04
56999.0, 94.14
57000.0, 93.14
57001.0, 93.97
57002.0, 93.07
57003.0, 93.21
57004.0, 92.20
57005.0, 92.75
57006.0, 93.80
57007.0, 92.27
57008.0, 93.29
57009.0, 94.51
57010.0, 94.26
57011.0, 93.59
57012.0, 93.13
57013.0, 93.04
57014.0, 93.06
57015.0, 93.68
57016.0, 93.58
57017.0, 94.53
57018.0, 92.88
57019.0, 93.54
57020.0, 91.88
57021.0, 92.53
57022.0, 93.70
57023.0, 92.88
57024.0, 93.53
57025.0, 94.11
57026.0, 93.75
57027.0, 94.04
57028.0, 94.45
57029.0, 95.17
57030.0, 94.14
57031.0, 95.08
57032.0, 94.04
57033.0, 93.46
57034.0, 91.99
57035.0, 91.62
57036.0, 91.70
57037.0, 91.81
57038.0, 90.60
57039.0, 90.86
57040.0, 91.47
57041.0, 90.06
57042.0, 90.59
57043.0, 90.58
57044.0, 89.26
57045.0, 90.97
57046.0, 91.81
57047.0, 91.20
57048.0, 92.17
57049.0, 91.33
57050.0, 91.05
57051.0, 91.03
57052.0, 91.08
57053.0, 90.51
57054.0, 91.36
57055.0, 91.38
57056.0, 92.71
57057.0, 90.88
57058.0, 92.42
57059.0, 91.99
57060.0, 91.27
57061.0, 91.20
57062.0, 92.13
57063.0, 92.24
57064.0, 92.18
57065.0, 92.12
57066.0, 92.10
57067.0, 92.61
57068.0, 92.20
57069.0, 94.07
57070.0, 91.40
57071.0, 91.05
57072.0, 91.25
57073.0, 90.62
57074.0, 90.51
57075.0, 90.22
57076.0, 90.19
57077.0, 90.41
57078.0, 90.51
57079.0, 90.18
57080.0, 90.22
57081.0, 88.91
57082.0, 90.11
57083.0, 89.98
57084.0, 90.60
57085.0, 89.94
57086.0, 90.44
57087.0, 89.00
57088.0, 89.85
57089.0, 88.15
57090.0, 88.52
57091.0, 88.90
57092.0, 88.25
57093.0, 87.90
57094.0, 87.51
57095.0, 87.97
57096.0, 88.49
57097.0, 87.34
57098.0, 87.69
57099.0, 88.89
57100.0, 87.30
57101.0, 87.85
57102.0, 87.12
57103.0, 88.48
57104.0, 87.62
57105.0, 87.74
57106.0, 88.38
57107.0, 87.66
57108.0, 87.38
57109.0, 88.21
57110.0, 88.04
57111.0, 87.26
57112.0, 87.46
57113.0, 86.79
57114.0, 88.51
57115.0, 87.58
57116.0, 87.43
57117.0, 88.10
57118.0, 88.03
57119.0, 88.23
57120.0, 87.40
57121.0, 88.57
57122.0, 88.10
57123.0, 87.65
57124.0, 87.02
57125.0, 88.07
57126.0, 87.71
57127.0, 88.54
57128.0, 87.65
57129.0, 87.79
57130.0, 87.89
57131.0, 87.97
57132.0, 88.28
57133.0, 87.84
57134.0, 88.34
57135.0, 87.57
57136.0, 87.97
57137.0, 87.52
57138.0, 88.05
57139.0, 87.37
57140.0, 87.38
57141.0, 87.14
57142.0, 88.11
57143.0, 87.39
57144.0, 87.84
57145.0, 86.15
57146.0, 87.80
57147.0, 88.16
57148.0, 88.56
57149.0, 87.56
57150.0, 87.71
57151.0, 88.04
57152.0, 88.18
57153.0, 87.47
57154.0, 88.92
57155.0, 87.27
57156.0, 88.10
57157.0, 88.02
57158.0, 87.57
57159.0, 89.78
57160.0, 90.11
57161.0, 90.56
57162.0, 91.05
57163.0, 91.35
57164.0, 91.35
57165.0, 91.32
57166.0, 90.42
57167.0, 91.36
57168.0, 92.83
57169.0, 91.98
57170.0, 92.42
57171.0, 93.54
57172.0, 96.97
57173.0, 95.04
57174.0, 95.34
57175.0, 94.73
57176.0, 94.37
57177.0, 94.81
57178.0, 95.11
57179.0, 95.04
57180.0, 95.00
57181.0, 94.67
57182.0, 95.70
57183.0, 95.52
57184.0, 95.93
57185.0, 95.39
57186.0, 95.16
57187.0, 94.55
57188.0, 94.64
57189.0, 93.43
57190.0, 94.08
57191.0, 93.58
57192.0, 93.45
57193.0, 94.88
57194.0, 94.16
57195.0, 93.79
57196.0, 93.32
57197.0, 93.67
57198.0, 92.91
57199.0, 93.07
57200.0, 93.54
57201.0, 92.53
57202.0, 92.73
57203.0, 92.80
57204.0, 92.26
57205.0, 92.84
57206.0, 92.68
57207.0, 92.92
57208.0, 92.43
57209.0, 92.28
57210.0, 92.04
57211.0, 92.43
57212.0, 93.61
57213.0, 93.33
57214.0, 92.13
57215.0, 92.50
57216.0, 92.49
57217.0, 94.07
57218.0, 91.95
57219.0, 92.98
57220.0, 93.44
57221.0, 93.26
57222.0, 92.73
57223.0, 93.55
57224.0, 92.60
57225.0, 93.18
57226.0, 93.06
57227.0, 93.67
57228.0, 93.75
57229.0, 93.41
57230.0, 94.11
57231.0, 92.76
57232.0, 92.69
57233.0, 92.72
57234.0, 92.15
57235.0, 93.56
57236.0, 93.10
57237.0, 93.01
57238.0, 93.71
57239.0, 94.20
57240.0, 92.21
57241.0, 93.72
57242.0, 93.64
57243.0, 92.55
57244.0, 93.68
57245.0, 93.16
57246.0, 93.71
57247.0, 92.84
57248.0, 93.20
57249.0, 92.05
57250.0, 92.97
57251.0, 92.41
57252.0, 93.30
57253.0, 93.02
57254.0, 92.63
57255.0, 93.42
57256.0, 92.29
57257.0, 92.88
57258.0, 93.80
57259.0, 93.78
57260.0, 92.84
57261.0, 91.71
57262.0, 92.90
57263.0, 93.07
57264.0, 92.59
57265.0, 92.08
57266.0, 92.86
57267.0, 93.09
57268.0, 93.32
57269.0, 93.23
57270.0, 92.38
57271.0, 92.41
57272.0, 93.62
57273.0, 92.69
57274.0, 92.95
57275.0, 93.13
57276.0, 93.11
57277.0, 92.71
57278.0, 93.97
57279.0, 92.27
57280.0, 92.14
57281.0, 93.91
57282.0, 93.27
57283.0, 92.68
57284.0, 92.72
57285.0, 92.63
57286.0, 92.81
57287.0, 92.81
57288.0, 92.81
57289.0, 93.25
57290.0, 92.93
57291.0, 93.22
57292.0, 92.54
57293.0, 93.69
57294.0, 93.78
57295.0, 92.97
57296.0, 93.89
57297.0, 94.35
57298.0, 94.52
57299.0, 93.56
57300.0, 94.14
57301.0, 95.02
57302.0, 96.32
57303.0, 95.81
57304.0, 95.91
57305.0, 96.37
57306.0, 96.59
57307.0, 96.49
57308.0, 97.07
57309.0, 96.89
57310.0, 99.19
57311.0, 99.66
57312.0, 99.43
57313.0, 99.16
57314.0, 98.39
57315.0, 97.32
57316.0, 98.39
57317.0, 98.39
57318.0, 98.09
57319.0, 97.52
57320.0, 97.68
57321.0, 97.72
57322.0, 97.26
57323.0, 97.34
57324.0, 97.07
57325.0, 95.67
57326.0, 96.71
57327.0, 97.01
57328.0, 97.44
57329.0, 97.57
57330.0, 98.35
57331.0, 99.53
57332.0, 99.21
57333.0, 98.61
57334.0, 99.10
57335.0, 98.67
57336.0, 99.83
57337.0, 99.10
57338.0, 100.54
57339.0, 98.94
57340.0, 99.58
57341.0, 99.87
57342.0, 98.99
57343.0, 99.36
57344.0, 99.73
57345.0, 99.20
57346.0, 98.70
57347.0, 99.45
57348.0, 98.38
57349.0, 97.36
57350.0, 97.34
57351.0, 98.73
57352.0, 100.14
57353.0, 99.01
57354.0, 98.66
57355.0, 97.19
57356.0, 96.86
57357.0, 95.53
57358.0, 95.86
57359.0, 94.94
57360.0, 95.07
57361.0, 95.12
57362.0, 94.99
57363.0, 95.41
57364.0, 95.22
57365.0, 95.22
57366.0, 95.13
57367.0, 94.08
57368.0, 95.87
57369.0, 95.73
57370.0, 96.68
57371.0, 95.87
57372.0, 94.91
57373.0, 93.96
57374.0, 93.49
57375.0, 94.63
57376.0, 92.82
57377.0, 95.61
57378.0, 93.17
57379.0, 92.97
57380.0, 93.15
57381.0, 93.19
57382.0, 94.09
57383.0, 93.46
57384.0, 91.81
57385.0, 92.32
57386.0, 92.80
57387.0, 91.57
57388.0, 91.86
57389.0, 91.58
57390.0, 91.66
57391.0, 91.62
57392.0, 91.71
57393.0, 90.38
57394.0, 91.14
57395.0, 91.67
57396.0, 90.54
57397.0, 90.60
57398.0, 91.48
57399.0, 91.86
57400.0, 90.98
57401.0, 91.30
57402.0, 91.80
57403.0, 90.60
57404.0, 91.36
57405.0, 92.58
57406.0, 91.40
57407.0, 92.80
57408.0, 92.88
57409.0, 92.64
57410.0, 93.29
57411.0, 93.67
57412.0, 94.28
57413.0, 95.14
57414.0, 96.04
57415.0, 95.06
57416.0, 95.39
57417.0, 95.20
57418.0, 95.12
57419.0, 97.06
57420.0, 96.28
57421.0, 95.59
57422.0, 96.46
57423.0, 97.25
57424.0, 96.95
57425.0, 97.57
57426.0, 97.69
57427.0, 96.54
57428.0, 97.69
57429.0, 97.81
57430.0, 97.65
57431.0, 97.01
57432.0, 97.79
57433.0, 98.13
57434.0, 98.45
57435.0, 99.71
57436.0, 98.51
57437.0, 98.73
57438.0, 99.13
57439.0, 98.83
57440.0, 98.61
57441.0, 99.35
57442.0, 99.47
57443.0, 99.76
57444.0, 100.75
57445.0, 100.48
57446.0, 100.28
57447.0, 101.14
57448.0, 101.48
57449.0, 100.15
57450.0, 100.47
57451.0, 100.85
57452.0, 100.36
57453.0, 100.44
57454.0, 99.22
57455.0, 98.23
57456.0, 98.32
57457.0, 97.49
57458.0, 97.10
57459.0, 97.12
57460.0, 96.83
57461.0, 95.00
57462.0, 95.94
57463.0, 96.25
57464.0, 95.46
57465.0, 96.41
57466.0, 96.28
57467.0, 95.72
57468.0, 95.80
57469.0, 95.33
57470.0, 96.23
57471.0, 96.99
57472.0, 98.07
57473.0, 97.72
57474.0, 99.28
57475.0, 98.53
57476.0, 97.88
57477.0, 98.03
57478.0, 98.18
57479.0, 97.41
57480.0, 97.48
57481.0, 97.87
57482.0, 98.62
57483.0, 101.12
57484.0, 102.09
57485.0, 101.43
57486.0, 101.89
57487.0, 101.31
57488.0, 105.93
57489.0, 102.99
57490.0, 99.84
57491.0, 98.07
57492.0, 98.10
57493.0, 97.93
57494.0, 98.33
57495.0, 97.57
57496.0, 98.44
57497.0, 97.35
57498.0, 97.36
57499.0, 97.99
57500.0, 98.71
57501.0, 98.07
57502.0, 98.08
57503.0, 96.18
57504.0, 95.86
57505.0, 95.55
57506.0, 93.76
57507.0, 93.06
57508.0, 93.81
57509.0, 92.68
57510.0, 92.61
57511.0, 93.41
57512.0, 94.30
57513.0, 94.49
57514.0, 94.03
57515.0, 93.28
57516.0, 93.15
57517.0, 92.10
57518.0, 90.86
57519.0, 92.72
57520.0, 90.90
57521.0, 89.85
57522.0, 91.00
57523.0, 90.73
57524.0, 90.90
57525.0, 90.38
57526.0, 91.38
57527.0, 90.20
57528.0, 91.21
57529.0, 91.03
57530.0, 89.98
57531.0, 90.14
57532.0, 90.99
57533.0, 91.29
57534.0, 91.24
57535.0, 90.43
57536.0, 90.38
57537.0, 90.50
57538.0, 91.10
57539.0, 90.72
57540.0, 92.27
57541.0, 90.83
57542.0, 90.46
57543.0, 91.66
57544.0, 90.63
57545.0, 90.30
57546.0, 90.88
57547.0, 90.77
57548.0, 90.87
57549.0, 91.16
57550.0, 90.95
57551.0, 92.02
57552.0, 91.37
57553.0, 91.14
57554.0, 90.83
57555.0, 91.63
57556.0, 92.07
57557.0, 91.62
57558.0, 91.31
57559.0, 91.22
57560.0, 92.50
57561.0, 91.72
57562.0, 90.45
57563.0, 91.21
57564.0, 91.78
57565.0, 91.53
57566.0, 92.11
57567.0, 92.09
57568.0, 92.43
57569.0, 92.42
57570.0, 92.48
57571.0, 93.50
57572.0, 92.75
57573.0, 93.16
57574.0, 92.40
57575.0, 92.67
57576.0, 93.67
57577.0, 93.29
57578.0, 92.91
57579.0, 93.51
57580.0, 93.28
57581.0, 93.01
57582.0, 94.25
57583.0, 93.82
57584.0, 93.99
57585.0, 94.40
57586.0, 94.41
57587.0, 95.39
57588.0, 95.08
57589.0, 93.77
57590.0, 94.82
57591.0, 94.73
57592.0, 94.18
57593.0, 93.94
57594.0, -9999.00
57595.0, -9999.00
57596.0, -9999.00
57597.0, -9999.00
57598.0, -9999.00
57599.0, -9999.00
57600.0, -9999.00
57601.0, -9999.00
57602.0, -9999.00
57603.0, -9999.00
57604.0, -9999.00
57605.0, -9999.00
57606.0, -9999.00
57607.0, -9999.00
57608.0, -9999.00
57609.0, -9999.00
57610.0, -9999.00
57611.0, -9999.00
57612.0, -9999.00
57613.0, -9999.00
57614.0, -9999.00
57615.0, -9999.00
57616.0, -9999.00
57617.0, -9999.00
57618.0, -9999.00
57619.0, -9999.00
57620.0, 97.49
57621.0, 96.60
57622.0, 97.25
57623.0, 96.21
57624.0, 96.10
57625.0, 95.85
57626.0, 96.73
57627.0, 96.48
57628.0, 96.24
57629.0, 96.36
57630.0, 96.26
57631.0, 95.64
57632.0, 95.52
57633.0, 94.79
57634.0, -9999.00
57635.0, -9999.00
57636.0, -9999.00
57637.0, -9999.00
57638.0, -9999.00
57639.0, -9999.00
57640.0, -9999.00
57641.0, -9999.00
57642.0, -9999.00
57643.0, -9999.00
57644.0, -9999.00
57645.0, -9999.00
57646.0, -9999.00
57647.0, -9999.00
57648.0, -9999.00
57649.0, -9999.00
57650.0, -9999.00
57651.0, -9999.00
57652.0, -9999.00
57653.0, -9999.00
57654.0, -9999.00
57655.0, -9999.00
57656.0, -9999.00
57657.0, -9999.00
57658.0, -9999.00
57659.0, -9999.00
57660.0, -9999.00
57661.0, -9999.00
57662.0, -9999.00
57663.0, -9999.00
57664.0, 94.12
57665.0, 94.98
57666.0, 95.18
57667.0, 94.69
57668.0, 92.85
57669.0, 93.11
57670.0, 93.15
57671.0, 93.49
57672.0, 93.19
57673.0, 94.03
57674.0, 93.89
57675.0, 93.18
57676.0, 92.88
57677.0, 92.66
57678.0, 92.70
57679.0, 93.47
57680.0, 93.79
57681.0, 93.21
57682.0, 93.13
57683.0, 92.98
57684.0, 93.28
57685.0, 92.95
57686.0, 93.31
57687.0, 92.86
57688.0, 93.04
57689.0, 93.09
57690.0, 94.08
57691.0, 93.54
57692.0, 92.66
57693.0, 93.07
57694.0, 93.89
57695.0, 94.13
57696.0, 93.61
57697.0, 94.08
57698.0, 94.00
57699.0, 94.06
57700.0, 93.51
57701.0, 93.90
57702.0, 93.50
57703.0, 93.69
57704.0, 93.62
57705.0, 92.23
57706.0, 93.43
57707.0, 94.04
57708.0, 92.52
57709.0, 92.87
57710.0, 93.06
57711.0, 92.96
57712.0, 93.74
57713.0, 93.32
57714.0, 92.33
57715.0, 92.38
57716.0, 92.82
57717.0, 93.50
57718.0, 93.59
57719.0, 93.74
57720.0, 93.53
57721.0, 93.28
57722.0, 94.82
57723.0, 93.35
57724.0, 93.39
57725.0, 93.61
57726.0, 93.57
57727.0, 93.63
57728.0, 93.97
57729.0, 93.64
57730.0, 93.51
57731.0, 94.05
57732.0, 95.13
57733.0, 94.32
57734.0, 93.53
57735.0, 94.10
57736.0, 94.64
57737.0, 95.16
57738.0, 95.03
57739.0, 94.98
57740.0, 94.83
57741.0, 94.80
57742.0, 95.15
57743.0, 94.61
57744.0, 94.67
57745.0, 94.54
57746.0, 94.52
57747.0, 93.82
57748.0, 94.78
57749.0, 94.02
57750.0, 93.99
57751.0, 93.90
57752.0, 93.85
57753.0, 93.76
57754.0, 93.67
57755.0, 93.63
57756.0, 92.77
57757.0, 93.73
57758.0, 93.06
57759.0, 92.83
57760.0, 92.73
57761.0, 93.05
57762.0, 93.80
57763.0, 93.46
57764.0, 93.51
57765.0, 93.33
57766.0, 92.97
57767.0, 93.07
57768.0, 93.60
57769.0, 92.74
57770.0, 93.29
57771.0, 94.66
57772.0, 94.12
57773.0, 91.67
57774.0, 92.31
57775.0, 93.61
57776.0, 93.30
57777.0, 93.39
57778.0, 93.12
57779.0, 92.77
57780.0, 93.53
57781.0, 93.35
57782.0, 93.70
57783.0, 93.26
57784.0, 92.82
57785.0, 93.11
57786.0, 93.79
57787.0, 92.03
57788.0, 93.48
57789.0, 93.84
57790.0, 93.15
57791.0, 92.69
57792.0, 93.40
57793.0, 93.55
57794.0, 92.68
57795.0, 93.33
57796.0, 92.54
57797.0, 93.03
57798.0, 92.62
57799.0, 92.96
57800.0, 93.16
57801.0, 93.00
57802.0, 93.57
57803.0, 92.67
57804.0, 92.74
57805.0, 93.92
57806.0, 93.23
57807.0, 93.96
57808.0, 92.99
57809.0, 93.67
57810.0, 93.91
57811.0, 94.11
57812.0, 93.92
57813.0, 93.98
57814.0, 93.50
57815.0, 93.64
57816.0, 94.66
57817.0, 94.33
57818.0, 93.77
57819.0, 94.44
57820.0, 93.40
57821.0, 94.53
57822.0, 93.25
57823.0, 93.54
57824.0, 93.70
57825.0, 93.54
57826.0, 93.98
57827.0, 93.82
57828.0, 94.82
57829.0, 94.49
57830.0, 93.56
57831.0, 93.50
57832.0, 93.47
57833.0, 94.13
57834.0, 94.09
57835.0, 94.30
57836.0, 94.57
57837.0, 93.60
57838.0, 93.83
57839.0, 92.80
57840.0, 93.49
57841.0, 93.43
57842.0, 94.12
57843.0, 94.24
57844.0, 93.35
57845.0, 93.04
57846.0, 94.36
57847.0, 94.22
57848.0, 94.95
57849.0, 94.44
57850.0, 94.58
57851.0, 94.30
57852.0, 94.03
57853.0, 94.79
57854.0, 94.18
57855.0, 94.75
57856.0, 93.43
57857.0, 93.55
57858.0, 94.58
57859.0, 94.49
57860.0, 94.42
57861.0, 94.58
57862.0, 93.62
57863.0, 95.17
57864.0, 95.43
57865.0, 94.68
57866.0, 94.09
57867.0, 94.89
57868.0, 94.39
57869.0, 95.61
57870.0, 93.49
57871.0, 94.52
57872.0, 95.21
57873.0, 94.40
57874.0, 94.32
57875.0, 94.95
57876.0, 95.77
57877.0, 95.70
57878.0, 95.72
57879.0, 95.34
57880.0, 94.32
57881.0, 94.99
57882.0, 94.36
57883.0, 94.52
57884.0, 94.58
57885.0, 94.63
57886.0, 93.95
57887.0, 95.48
57888.0, 94.73
57889.0, 93.99
57890.0, 93.84
57891.0, 95.09
57892.0, 94.89
57893.0, 95.16
57894.0, 94.45
57895.0, 95.03
57896.0, 94.44
57897.0, 94.25
57898.0, 94.90
57899.0, 94.90
57900.0, 95.31
57901.0, 94.84
57902.0, 93.85
57903.0, 95.01
57904.0, 94.39
57905.0, 94.82
57906.0, 94.76
57907.0, 94.43
57908.0, 95.30
57909.0, 95.01
57910.0, 94.44
57911.0, 93.92
57912.0, 94.36
57913.0, 93.88
57914.0, 94.57
57915.0, 95.10
57916.0, 93.88
57917.0, 94.39
57918.0, 94.21
57919.0, 94.40
57920.0, 94.08
57921.0, 94.09
57922.0, 93.74
57923.0, 94.36
57924.0, 94.22
57925.0, 94.76
57926.0, 95.32
57927.0, 94.34
57928.0, 95.11
57929.0, 94.13
57930.0, 94.42
57931.0, 95.38
57932.0, 95.28
57933.0, 94.95
57934.0, 94.89
57935.0, 95.23
57936.0, 95.81
57937.0, 94.55
57938.0, 94.35
57939.0, 94.31
57940.0, 95.59
57941.0, 95.24
57942.0, 94.80
57943.0, 94.63
57944.0, 94.58
57945.0, 95.19
57946.0, 94.76
57947.0, 93.77
57948.0, 93.99
57949.0, 94.72
57950.0, 94.64
57951.0, 95.12
57952.0, 93.98
57953.0, 94.70
57954.0, 94.97
57955.0, 95.00
57956.0, 95.73
57957.0, 94.16
57958.0, 95.81
57959.0, 94.59
57960.0, 95.13
57961.0, 95.56
57962.0, 95.56
57963.0, 95.91
57964.0, 95.52
57965.0, 96.12
57966.0, 96.78
57967.0, 96.59
57968.0, 96.31
57969.0, 96.63
57970.0, 95.62
57971.0, 96.84
57972.0, 96.01
57973.0, 96.43
57974.0, 96.25
57975.0, 96.17
57976.0, 95.39
57977.0, 95.69
57978.0, 96.77
57979.0, 97.53
57980.0, 97.00
57981.0, 96.24
57982.0, 96.21
57983.0, 96.63
57984.0, 96.34
57985.0, 95.70
57986.0, 96.91
57987.0, 97.10
57988.0, 95.89
57989.0, 96.19
57990.0, 97.18
57991.0, 96.18
57992.0, 96.25
57993.0, 96.27
57994.0, 96.00
57995.0, 96.35
57996.0, 95.98
57997.0, 96.28
57998.0, 96.53
57999.0, 96.01
58000.0, 96.55
58001.0, 95.94
58002.0, 95.09
58003.0, 95.51
58004.0, 96.28
58005.0, 96.14
58006.0, 95.90
58007.0, 96.45
58008.0, 95.37
58009.0, 96.49
58010.0, 95.92
58011.0, 95.30
58012.0, 95.39
58013.0, 95.67
58014.0, 97.21
58015.0, 96.42
58016.0, 96.46
58017.0, 96.24
58018.0, 95.01
58019.0, 94.90
58020.0, 96.05
58021.0, 94.26
58022.0, 96.41
58023.0, 95.04
58024.0, 96.02
58025.0, 95.99
58026.0, 95.66
58027.0, 95.86
58028.0, 97.63
58029.0, 95.14
58030.0, 96.53
58031.0, 96.27
58032.0, 95.55
58033.0, 96.30
58034.0, 96.23
58035.0, 95.61
58036.0, 95.91
58037.0, 95.54
58038.0, 96.99
58039.0, 96.38
58040.0, 96.75
58041.0, 95.51
58042.0, 96.30
58043.0, 96.52
58044.0, 95.68
58045.0, 96.06
58046.0, 95.82
58047.0, 95.49
58048.0, 96.55
58049.0, 95.85
58050.0, 94.72
58051.0, 95.43
58052.0, 94.94
58053.0, 95.48
58054.0, 95.73
58055.0, 95.95
58056.0, 95.11
58057.0, 95.77
58058.0, 94.24
58059.0, 95.71
58060.0, 95.38
58061.0, 94.80
58062.0, 95.87
58063.0, 95.27
58064.0, 95.12
58065.0, 94.64
58066.0, 94.58
58067.0, 94.65
58068.0, 95.27
58069.0, 94.40
58070.0, 94.59
58071.0, 96.05
58072.0, 96.12
58073.0, 95.88
58074.0, 94.79
58075.0, 94.36
58076.0, 95.02
58077.0, 95.44
58078.0, 95.84
58079.0, 95.52
58080.0, 94.81
58081.0, 95.69
58082.0, 94.42
58083.0, 94.40
58084.0, 94.74
58085.0, 94.68
58086.0, 93.58
58087.0, 94.93
58088.0, 94.65
58089.0, 93.01
58090.0, 93.92
58091.0, 94.51
58092.0, 94.37
58093.0, 94.18
58094.0, 93.77
58095.0, 94.80
58096.0, 94.35
58097.0, 93.70
58098.0, 93.61
58099.0, 94.33
58100.0, 93.50
58101.0, 94.69
58102.0, 95.12
58103.0, 94.27
58104.0, 94.64
58105.0, 94.05
58106.0, 94.68
58107.0, 95.66
58108.0, 94.16
58109.0, 94.20
58110.0, 94.58
58111.0, 94.53
58112.0, 95.15
58113.0, 94.40
58114.0, 94.08
58115.0, 94.63
58116.0, 94.79
58117.0, 94.16
58118.0, 94.28
58119.0, 94.91
58120.0, 94.11
58121.0, 94.16
58122.0, 93.45
58123.0, 94.52
58124.0, 94.29
58125.0, 94.23
58126.0, 94.94
58127.0, 93.91
58128.0, 94.77
58129.0, 94.62
58130.0, 94.59
58131.0, 95.65
58132.0, 94.61
58133.0, 94.60
58134.0, 94.06
58135.0, 95.16
58136.0, 94.89
58137.0, 93.67
58138.0, 94.19
58139.0, 94.87
58140.0, 95.05
58141.0, 94.56
58142.0, 94.46
58143.0, 93.15
58144.0, 94.16
58145.0, 94.80
58146.0, 94.79
58147.0, 95.10
58148.0, 94.76
58149.0, 94.15
58150.0, 94.64
58151.0, 94.28
58152.0, 94.00
58153.0, 94.38
58154.0, 95.40
58155.0, 95.17
58156.0, 95.09
58157.0, 94.43
58158.0, 94.69
58159.0, 93.77
58160.0, 94.47
58161.0, 94.32
58162.0, 95.87
58163.0, 94.57
58164.0, 94.36
58165.0, 94.29
58166.0, 95.75
58167.0, 94.97
58168.0, 95.08
58169.0, 94.89
58170.0, 94.05
58171.0, 93.98
58172.0, 94.77
58173.0, 93.98
58174.0, 95.03
58175.0, 93.81
58176.0, 95.11
58177.0, 94.99
58178.0, 93.83
58179.0, 95.02
58180.0, 94.15
58181.0, 95.66
58182.0, 95.45
58183.0, 95.84
58184.0, 95.34
58185.0, 95.15
58186.0, 94.73
58187.0, 95.49
58188.0, 96.16
58189.0, 95.99
58190.0, 95.00
58191.0, 95.26
58192.0, 94.57
58193.0, 94.69
58194.0, 94.18
58195.0, 94.71
58196.0, 94.64
58197.0, 94.40
58198.0, 95.16
58199.0, 96.12
58200.0, 95.44
58201.0, 94.11
58202.0, 94.55
58203.0, 94.74
58204.0, 95.77
58205.0, 95.00
58206.0, 95.13
58207.0, 95.99
58208.0, 95.04
58209.0, 95.57
58210.0, 95.73
58211.0, 95.92
58212.0, 96.05
58213.0, 95.98
58214.0, 95.35
58215.0, 95.56
58216.0, 95.16
58217.0, 95.25
58218.0, 94.96
58219.0, 95.07
58220.0, 95.09
58221.0, 95.66
58222.0, 95.67
58223.0, 96.48
58224.0, 95.04
58225.0, 95.48
58226.0, 94.81
58227.0, 95.33
58228.0, 95.41
58229.0, 94.56
58230.0, 94.50
58231.0, 94.90
58232.0, 95.55
58233.0, 95.61
58234.0, 95.42
58235.0, 95.64
58236.0, 95.57
58237.0, 95.71
58238.0, 96.02
58239.0, 95.42
58240.0, 95.76
58241.0, 97.40
58242.0, 95.76
58243.0, 95.92
58244.0, 95.27
58245.0, 95.71
58246.0, 96.01
58247.0, 96.39
58248.0, 95.82
58249.0, 95.84
58250.0, 96.40
58251.0, 95.92
58252.0, 96.01
58253.0, 96.09
58254.0, 95.81
58255.0, 96.33
58256.0, 96.76
58257.0, 96.55
58258.0, 96.49
58259.0, 95.92
58260.0, 95.78
58261.0, 95.69
58262.0, 96.39
58263.0, 95.90
58264.0, 96.30
58265.0, 96.48
58266.0, 95.60
58267.0, 96.22
58268.0, 96.15
58269.0, 95.68
58270.0, 97.45
58271.0, 96.23
58272.0, 95.76
58273.0, 96.17
58274.0, 96.16
58275.0, 95.69
58276.0, 95.34
58277.0, 97.34
58278.0, 96.87
58279.0, 96.32
58280.0, 96.56
58281.0, 97.89
58282.0, 97.94
58283.0, 97.85
58284.0, 98.24
58285.0, 98.48
58286.0, 101.17
58287.0, 102.18
58288.0, 103.42
58289.0, 103.28
58290.0, 103.85
58291.0, 104.95
58292.0, 106.44
58293.0, 106.59
58294.0, 106.32
58295.0, 106.60
58296.0, 107.27
58297.0, 108.45
58298.0, 109.02
58299.0, 110.51
58300.0, 110.87
58301.0, 110.30
58302.0, 110.62
58303.0, 110.92
58304.0, 110.06
58305.0, 109.27
58306.0, 109.50
58307.0, 108.08
58308.0, 109.56
58309.0, 107.84
58310.0, 107.21
58311.0, 106.76
58312.0, 107.87
58313.0, 107.63
58314.0, 107.46
58315.0, 108.43
58316.0, 110.11
58317.0, 110.82
58318.0, 110.36
58319.0, 110.85
58320.0, 108.70
58321.0, 110.18
58322.0, 110.39
58323.0, 110.69
58324.0, 112.80
58325.0, 112.92
58326.0, 114.30
58327.0, 112.95
58328.0, 112.85
58329.0, 111.16
58330.0, 110.12
58331.0, 108.69
58332.0, 108.50
58333.0, 108.80
58334.0, 108.90
58335.0, 108.62
58336.0, 108.51
58337.0, 107.91
58338.0, 106.51
58339.0, 106.29
58340.0, 105.52
58341.0, 103.23
58342.0, 100.79
58343.0, 100.86
58344.0, 100.17
58345.0, 98.82
58346.0, 98.77
58347.0, 97.08
58348.0, 97.90
58349.0, 97.03
58350.0, 96.87
58351.0, 96.69
58352.0, 95.37
58353.0, 95.86
58354.0, 95.51
58355.0, 95.60
58356.0, 93.96
58357.0, 95.06
58358.0, 95.38
58359.0, 94.74
58360.0, 94.37
58361.0, 95.11
58362.0, 94.32
58363.0, 95.65
58364.0, 95.11
58365.0, 95.02
58366.0, 95.37
58367.0, 95.22
58368.0, 94.92
58369.0, 95.11
58370.0, 95.60
58371.0, 94.51
58372.0, 94.01
58373.0, 94.71
58374.0, 96.14
58375.0, 95.90
58376.0, 95.05
58377.0, 95.52
58378.0, 96.69
58379.0, 95.15
58380.0, 95.32
58381.0, 94.79
58382.0, 94.92
58383.0, 95.57
58384.0, 94.61
58385.0, 94.37
58386.0, 95.19
58387.0, 95.62
58388.0, 94.94
58389.0, 94.96
58390.0, 94.75
58391.0, 96.51
58392.0, 95.05
58393.0, 95.33
58394.0, 96.38
58395.0, 95.55
58396.0, 95.09
58397.0, 94.18
58398.0, 93.97
58399.0, 94.56
58400.0, 94.69
58401.0, 95.19
58402.0, 95.50
58403.0, 94.85
58404.0, 94.85
58405.0, 95.08
58406.0, 95.89
58407.0, 96.63
58408.0, 94.96
58409.0, 95.42
58410.0, 95.22
58411.0, 94.74
58412.0, 96.12
58413.0, 95.37
58414.0, 96.22
58415.0, 95.19
58416.0, 94.95
58417.0, 96.60
58418.0, 96.04
58419.0, 95.99
58420.0, 95.70
58421.0, 96.23
58422.0, 95.37
58423.0, 95.44
58424.0, 96.00
58425.0, 96.49
58426.0, 97.09
58427.0, 95.92
58428.0, 96.13
58429.0, 95.73
58430.0, 96.05
58431.0, 95.68
58432.0, 95.14
58433.0, 96.13
58434.0, 96.81
58435.0, 95.82
58436.0, 95.54
58437.0, 96.07
58438.0, 95.68
58439.0, 95.37
58440.0, 95.30
58441.0, 95.70
58442.0, 95.74
58443.0, 95.34
58444.0, 95.31
58445.0, 96.11
58446.0, 96.04
58447.0, 97.45
58448.0, 96.13
58449.0, 96.88
58450.0, 96.04
58451.0, 96.77
58452.0, 96.94
58453.0, 95.67
58454.0, 96.61
58455.0, 95.44
58456.0, 95.68
58457.0, 95.88
58458.0, 95.55
58459.0, 95.14
58460.0, 95.77
58461.0, 95.64
58462.0, 95.81
58463.0, 95.64
58464.0, 95.45
58465.0, 95.63
58466.0, 95.86
58467.0, 95.82
58468.0, 94.97
58469.0, 96.37
58470.0, 96.12
58471.0, 95.59
58472.0, 96.39
58473.0, 96.11
58474.0, -9999.00
58475.0, -9999.00
58476.0, -9999.00
58477.0, -9999.00
58478.0, -9999.00
58479.0, -9999.00
58480.0, -9999.00
58481.0, -9999.00
58482.0, -9999.00
58483.0, -9999.00
58484.0, -9999.00
58485.0, -9999.00
58486.0, -9999.00
58487.0, -9999.00
58488.0, -9999.00
58489.0, -9999.00
58490.0, -9999.00
58491.0, -9999.00
58492.0, -9999.00
58493.0, -9999.00
58494.0, -9999.00
58495.0, -9999.00
58496.0, -9999.00
58497.0, -9999.00
58498.0, -9999.00
58499.0, -9999.00
58500.0, 97.28
58501.0, 96.81
58502.0, 99.06
58503.0, 99.10
58504.0, 98.33
58505.0, 98.51
58506.0, 98.79
58507.0, 99.67
58508.0, 99.50
58509.0, 98.54
58510.0, 97.05
58511.0, 96.29
58512.0, 96.92
58513.0, 96.95
58514.0, 97.90
58515.0, 95.89
58516.0, 96.17
58517.0, 95.58
58518.0, 95.79
58519.0, 95.59
58520.0, 94.49
58521.0, 95.19
58522.0, 96.82
58523.0, 95.73
58524.0, 96.42
58525.0, 95.95
58526.0, 94.31
58527.0, 95.82
58528.0, 96.30
58529.0, 96.32
58530.0, 96.72
58531.0, 96.36
58532.0, 96.12
58533.0, 96.87
58534.0, 96.30
58535.0, 96.60
58536.0, 96.71
58537.0, 96.02
58538.0, 96.32
58539.0, 96.20
58540.0, 96.97
58541.0, 96.24
58542.0, 95.62
58543.0, 95.30
58544.0, 95.17
58545.0, 93.92
58546.0, 94.37
58547.0, 93.45
58548.0, 94.42
58549.0, 93.71
58550.0, 94.26
58551.0, 94.43
58552.0, 93.55
58553.0, 94.68
58554.0, 96.22
58555.0, 97.11
58556.0, 96.58
58557.0, 98.30
58558.0, 97.56
58559.0, 97.84
58560.0, 96.85
58561.0, 97.37
58562.0, 97.79
58563.0, 97.05
58564.0, 96.32
58565.0, 98.05
58566.0, 97.06
58567.0, 96.59
58568.0, 97.69
58569.0, 97.16
58570.0, 97.16
58571.0, 97.42
58572.0, 96.03
58573.0, 97.66
58574.0, 98.32
58575.0, 99.41
58576.0, 99.81
58577.0, 99.61
58578.0, 98.67
58579.0, 98.83
58580.0, 98.96
58581.0, 99.10
58582.0, 98.49
58583.0, 98.53
58584.0, 97.95
58585.0, 99.48
58586.0, 100.67
58587.0, 100.97
58588.0, 100.75
58589.0, 100.51
58590.0, 99.39
58591.0, 100.30
58592.0, 100.45
58593.0, 100.26
58594.0, 100.02
58595.0, 99.63
58596.0, 100.93
58597.0, 99.92
58598.0, 98.55
58599.0, 98.17
58600.0, 99.81
58601.0, 98.44
58602.0, 98.82
58603.0, 98.33
58604.0, 98.19
58605.0, 98.18
58606.0, 97.77
58607.0, 98.15
58608.0, 98.77
58609.0, 98.71
58610.0, 97.56
58611.0, 98.40
58612.0, 97.83
58613.0, 98.70
58614.0, 99.34
58615.0, 98.41
58616.0, 97.66
58617.0, 98.85
58618.0, 98.47
58619.0, 97.13
58620.0, 98.02
58621.0, 98.23
58622.0, 97.94
58623.0, 98.18
58624.0, 97.86
58625.0, 97.88
58626.0, 98.65
58627.0, 97.64
58628.0, 98.15
58629.0, 98.22
58630.0, 97.60
58631.0, 98.49
58632.0, 98.76
58633.0, 97.81
58634.0, 98.24
58635.0, 98.80
58636.0, 98.55
58637.0, 98.79
58638.0, 97.72
58639.0, 98.81
58640.0, 98.46
58641.0, 98.41
58642.0, 98.51
58643.0, 97.67
58644.0, 98.94
58645.0, 99.34
58646.0, 97.64
58647.0, 97.82
58648.0, 97.35
58649.0, 98.65
58650.0, 98.53
58651.0, 98.76
58652.0, 98.98
58653.0, 99.30
58654.0, 97.92
58655.0, 98.59
58656.0, 98.58
58657.0, 98.91
58658.0, 99.36
58659.0, 98.59
58660.0, 98.22
58661.0, 96.97
58662.0, 97.69
58663.0, 97.68
58664.0, 97.10
58665.0, 96.79
58666.0, 96.54
58667.0, 96.35
58668.0, 99.96
58669.0, 100.59
58670.0, 97.52
58671.0, 97.84
58672.0, 102.39
58673.0, 102.84
58674.0, 102.38
58675.0, 102.09
58676.0, 102.12
58677.0, 103.44
58678.0, 103.43
58679.0, 105.19
58680.0, 104.10
58681.0, 104.23
58682.0, 104.55
58683.0, 103.82
58684.0, 105.65
58685.0, 104.43
58686.0, 102.66
58687.0, 103.94
58688.0, 104.15
58689.0, 103.75
58690.0, 101.85
58691.0, 101.77
58692.0, 100.82
58693.0, 103.42
58694.0, 102.36
58695.0, 103.06
58696.0, 102.61
58697.0, 102.19
58698.0, 102.36
58699.0, 102.84
58700.0, 101.73
58701.0, 100.31
58702.0, 101.93
58703.0, 100.48
58704.0, 100.26
58705.0, 101.19
58706.0, 99.07
58707.0, 99.96
58708.0, 100.97
58709.0, 100.75
58710.0, 100.54
58711.0, 100.95
58712.0, 100.74
58713.0, 100.29
58714.0, 100.05
58715.0, 101.60
58716.0, 99.63
58717.0, 100.79
58718.0, 101.26
58719.0, 100.13
58720.0, 100.68
58721.0, 100.45
58722.0, 101.01
58723.0, 100.60
58724.0, 100.41
58725.0, 101.96
58726.0, 100.84
58727.0, 101.06
58728.0, 101.08
58729.0, 100.29
58730.0, 101.18
58731.0, 100.92
58732.0, 100.33
58733.0, 100.26
58734.0, 100.15
58735.0, 100.39
58736.0, 100.49
58737.0, 100.23
58738.0, 99.93
58739.0, 99.96
58740.0, 99.18
58741.0, 100.88
58742.0, 100.68
58743.0, 100.47
58744.0, 100.82
58745.0, 100.76
58746.0, 100.93
58747.0, 101.16
58748.0, 100.76
58749.0, 100.53
58750.0, 100.75
58751.0, 100.42
58752.0, 99.92
58753.0, 99.68
58754.0, 99.96
58755.0, 98.93
58756.0, 100.26
58757.0, 99.71
58758.0, 99.46
58759.0, 100.39
58760.0, 100.84
58761.0, 100.91
58762.0, 100.54
58763.0, 100.05
58764.0, 99.36
58765.0, 100.07
58766.0, 99.49
58767.0, 100.21
58768.0, 99.71
58769.0, 100.71
58770.0, 100.95
58771.0, 101.15
58772.0, 101.34
58773.0, 103.12
58774.0, 102.41
58775.0, 102.09
58776.0, 100.83
58777.0, 101.83
58778.0, 101.69
58779.0, 101.70
58780.0, 100.62
58781.0, 100.90
58782.0, 100.83
58783.0, 101.77
58784.0, 101.27
58785.0, 100.15
58786.0, 101.20
58787.0, 101.54
58788.0, 100.66
58789.0, 100.89
58790.0, 100.87
58791.0, 100.21
58792.0, 101.03
58793.0, 100.71
58794.0, 100.76
58795.0, 102.80
58796.0, 102.91
58797.0, 101.35
58798.0, 102.39
58799.0, 100.87
58800.0, 101.88
58801.0, 103.09
58802.0, 101.97
58803.0, 102.35
58804.0, 101.22
58805.0, 102.04
58806.0, 101.97
58807.0, 102.49
58808.0, 102.41
58809.0, 102.37
58810.0, 102.48
58811.0, 101.95
58812.0, 103.38
58813.0, 102.39
58814.0, 102.20
58815.0, 102.96
58816.0, 103.12
58817.0, 103.07
58818.0, 102.56
58819.0, 102.81
58820.0, 102.01
58821.0, 101.56
58822.0, 102.76
58823.0, 100.93
58824.0, 101.33
58825.0, 102.15
58826.0, 101.55
58827.0, 101.97
58828.0, 103.35
58829.0, 102.98
58830.0, 102.60
58831.0, 101.38
58832.0, 102.47
58833.0, 103.04
58834.0, 103.68
58835.0, 104.80
58836.0, 104.48
58837.0, 103.52
58838.0, 104.87
58839.0, 104.65
58840.0, 105.16
58841.0, 105.50
58842.0, 105.13
58843.0, 103.83
58844.0, 104.51
58845.0, 104.64
58846.0, 102.33
58847.0, 102.58
58848.0, 103.37
58849.0, 103.52
58850.0, 104.57
58851.0, 104.76
58852.0, 104.86
58853.0, 104.64
58854.0, 103.80
58855.0, 105.29
58856.0, 105.15
58857.0, 104.35
58858.0, 104.74
58859.0, 104.13
58860.0, 104.98
58861.0, 104.38
58862.0, 106.19
58863.0, 107.27
58864.0, 106.03
58865.0, 107.03
58866.0, 106.85
58867.0, 106.66
58868.0, 105.52
58869.0, 104.85
58870.0, 105.05
58871.0, 106.21
58872.0, 103.55
58873.0, 105.48
58874.0, 104.51
58875.0, 103.58
58876.0, 103.80
58877.0, 103.57
58878.0, 103.18
58879.0, 103.26
58880.0, 104.00
58881.0, 103.55
58882.0, 103.15
58883.0, 102.82
58884.0, 101.53
58885.0, 101.02
58886.0, 101.93
58887.0, 102.50
58888.0, 102.00
58889.0, 102.53
58890.0, 102.31
58891.0, 103.13
58892.0, 102.15
58893.0, 102.91
58894.0, 102.50
58895.0, 102.99
58896.0, 103.16
58897.0, 100.95
58898.0, 101.66
58899.0, 103.42
58900.0, 103.25
58901.0, 102.39
58902.0, 101.83
58903.0, 102.78
58904.0, 101.54
58905.0, 102.37
58906.0, 101.74
58907.0, 101.48
58908.0, 101.98
58909.0, 101.07
58910.0, 101.48
58911.0, 102.06
58912.0, 103.87
58913.0, 104.50
58914.0, 104.04
58915.0, 103.14
58916.0, 102.90
58917.0, 101.36
58918.0, 102.11
58919.0, 102.01
58920.0, 101.76
58921.0, 102.49
58922.0, 102.13
58923.0, 103.62
58924.0, 106.44
58925.0, 105.65
58926.0, 105.17
58927.0, 104.01
58928.0, 103.08
58929.0, 104.03
58930.0, 104.56
58931.0, 105.29
58932.0, 106.23
58933.0, 108.12
58934.0, 109.75
58935.0, 107.38
58936.0, 107.13
58937.0, 107.31
58938.0, 106.21
58939.0, 105.57
58940.0, 106.22
58941.0, 104.98
58942.0, 105.25
58943.0, 106.77
58944.0, 106.28
58945.0, 104.93
58946.0, 104.92
58947.0, 103.55
58948.0, 103.86
58949.0, 104.19
58950.0, 104.29
58951.0, 103.78
58952.0, 105.20
58953.0, 106.88
58954.0, 104.70
58955.0, 105.00
58956.0, 104.59
58957.0, 105.01
58958.0, 104.54
58959.0, 106.13
58960.0, 104.07
58961.0, 104.86
58962.0, 106.68
58963.0, 106.46
58964.0, 105.48
58965.0, 105.35
58966.0, 105.09
58967.0, 104.98
58968.0, 104.35
58969.0, 104.39
58970.0, 104.63
58971.0, 105.66
58972.0, 106.91
58973.0, 106.32
58974.0, 106.86
58975.0, 106.76
58976.0, 105.86
58977.0, 106.04
58978.0, 107.35
58979.0, 107.59
58980.0, 107.04
58981.0, 106.99
58982.0, 106.20
58983.0, 106.73
58984.0, 106.49
58985.0, 106.50
58986.0, 106.22
58987.0, 106.82
58988.0, 105.82
58989.0, 106.61
58990.0, 106.80
58991.0, 106.34
58992.0, 106.41
58993.0, 106.13
58994.0, 106.27
58995.0, 106.14
58996.0, 106.01
58997.0, 105.89
58998.0, 105.96
58999.0, 104.69
59000.0, 105.26
59001.0, 105.17
59002.0, 105.50
59003.0, 105.14
59004.0, 104.95
59005.0, 103.86
59006.0, 104.07
59007.0, 103.83
59008.0, 103.38
59009.0, 102.65
59010.0, 103.15
59011.0, 103.47
59012.0, 102.97
59013.0, 103.17
59014.0, 104.26
59015.0, 105.79
59016.0, 106.03
59017.0, 106.03
59018.0, 106.68
59019.0, 105.62
59020.0, 105.39
59021.0, 105.01
59022.0, 105.78
59023.0, 105.99
59024.0, 105.30
59025.0, 105.62
59026.0, 104.12
59027.0, 105.13
59028.0, 104.05
59029.0, 102.87
59030.0, 103.40
59031.0, 103.43
59032.0, 104.87
59033.0, 104.19
59034.0, 103.42
59035.0, 104.33
59036.0, 106.32
59037.0, 105.23
59038.0, 105.09
59039.0, 105.01
59040.0, 104.74
59041.0, 104.84
59042.0, 103.45
59043.0, 105.53
59044.0, 107.06
59045.0, 105.80
59046.0, 104.60
59047.0, 106.00
59048.0, 105.60
59049.0, 103.94
59050.0, 105.02
59051.0, 103.43
59052.0, 104.15
59053.0, 103.99
59054.0, 104.57
59055.0, 103.04
59056.0, 103.18
59057.0, 103.33
59058.0, 104.01
59059.0, 104.57
59060.0, 104.49
59061.0, 104.66
59062.0, 104.15
59063.0, 104.90
59064.0, 105.81
59065.0, 103.77
59066.0, 104.49
59067.0, 105.05
59068.0, 104.30
59069.0, 104.01
59070.0, 104.44
59071.0, 104.05
59072.0, 103.64
59073.0, 103.76
59074.0, 103.31
59075.0, 104.41
59076.0, 103.25
59077.0, 103.43
59078.0, 103.25
59079.0, 103.19
59080.0, 103.30
59081.0, 103.55
59082.0, 103.09
59083.0, 102.51
59084.0, 102.72
59085.0, 102.04
59086.0, 101.44
59087.0, 103.11
59088.0, 102.54
59089.0, 103.16
59090.0, 102.85
59091.0, 102.32
59092.0, 103.03
59093.0, 103.26
59094.0, 102.71
59095.0, 103.27
59096.0, 102.66
59097.0, 101.97
59098.0, 102.13
59099.0, 102.58
59100.0, 102.59
59101.0, 102.10
59102.0, 102.14
59103.0, 101.59
59104.0, 103.01
59105.0, 102.27
59106.0, 104.31
59107.0, 103.02
59108.0, 102.88
59109.0, 103.24
59110.0, 103.98
59111.0, 103.79
59112.0, 101.83
59113.0, 103.81
59114.0, 104.39
59115.0, 103.99
59116.0, 104.61
59117.0, 104.53
59118.0, 103.47
59119.0, 103.85
59120.0, 103.30
59121.0, 102.73
59122.0, 104.46
59123.0, 104.61
59124.0, 103.54
59125.0, 103.57
59126.0, 104.07
59127.0, 103.51
59128.0, 104.13
59129.0, 103.02
59130.0, 104.34
59131.0, 103.71
59132.0, 104.21
59133.0, 104.02
59134.0, 104.56
59135.0, 104.95
59136.0, 103.28
59137.0, 103.80
59138.0, 102.70
59139.0, 102.13
59140.0, 103.53
59141.0, 103.49
59142.0, 102.82
59143.0, 103.85
59144.0, 102.64
59145.0, 103.50
59146.0, 103.99
59147.0, 102.97
59148.0, 104.19
59149.0, 102.87
59150.0, 102.81
59151.0, 102.81
59152.0, 103.27
59153.0, 103.48
59154.0, 104.16
59155.0, 104.26
59156.0, 104.17
59157.0, 104.77
59158.0, 104.02
59159.0, 104.44
59160.0, 104.47
59161.0, 105.18
59162.0, 104.09
59163.0, 103.68
59164.0, 104.62
59165.0, 103.83
59166.0, 103.46
59167.0, 103.38
59168.0, 103.55
59169.0, 103.43
59170.0, 104.01
59171.0, 104.12
59172.0, 103.78
59173.0, 103.60
59174.0, 104.24
59175.0, 104.00
59176.0, 103.99
59177.0, 103.68
59178.0, 103.87
59179.0, 104.04
59180.0, 104.19
59181.0, 103.48
59182.0, 103.89
59183.0, 105.33
59184.0, 103.68
59185.0, 104.33
59186.0, 105.16
59187.0, 104.12
59188.0, 104.32
59189.0, 104.22
59190.0, 104.29
59191.0, 102.81
59192.0, 104.45
59193.0, 103.23
59194.0, 103.36
59195.0, 104.37
59196.0, 105.13
59197.0, 103.87
59198.0, 104.38
59199.0, 103.96
59200.0, 103.33
59201.0, 103.71
59202.0, 103.67
59203.0, 103.59
59204.0, 103.81
59205.0, 104.27
59206.0, 104.91
59207.0, 104.97
59208.0, 106.10
59209.0, 105.85
59210.0, 105.28
59211.0, 105.91
59212.0, 105.09
59213.0, 103.70
59214.0, 104.23
59215.0, 104.82
59216.0, 105.14
59217.0, 105.12
59218.0, 104.51
59219.0, 104.73
59220.0, 105.35
59221.0, 104.52
59222.0, 105.31
59223.0, 105.50
59224.0, 103.81
59225.0, 105.38
59226.0, 106.38
59227.0, 105.41
59228.0, 105.48
59229.0, 106.02
59230.0, 105.62
59231.0, 105.43
59232.0, 105.06
59233.0, 104.57
59234.0, 104.26
59235.0, 104.29
59236.0, 104.67
59237.0, 104.88
59238.0, 103.78
59239.0, 104.54
59240.0, 104.36
59241.0, 104.27
59242.0, 105.09
59243.0, 105.48
59244.0, 105.00
59245.0, 105.44
59246.0, 105.34
59247.0, 105.29
59248.0, 105.02
59249.0, 104.26
59250.0, 103.11
59251.0, 104.30
59252.0, 104.43
59253.0, 105.57
59254.0, 106.19
59255.0, 106.01
59256.0, 105.35
59257.0, 106.03
59258.0, 106.48
59259.0, 106.63
59260.0, 104.79
59261.0, 105.25
59262.0, 106.16
59263.0, 106.21
59264.0, 104.77
59265.0, 105.19
59266.0, 106.41
59267.0, 106.41
59268.0, 106.68
59269.0, 105.93
59270.0, 106.59
59271.0, 105.45
59272.0, 105.28
59273.0, 106.63
59274.0, 106.32
59275.0, 106.52
59276.0, 106.89
59277.0, 107.34
59278.0, 106.05
59279.0, 107.04
59280.0, 106.33
59281.0, 105.03
59282.0, 105.67
59283.0, 105.39
59284.0, 105.63
59285.0, 106.46
59286.0, 105.67
59287.0, 105.04
59288.0, 105.94
59289.0, 106.14
59290.0, 106.86
59291.0, 105.18
59292.0, 106.96
59293.0, 105.61
59294.0, 105.70
59295.0, 104.83
59296.0, 104.11
59297.0, 105.81
59298.0, 106.26
59299.0, 105.51
59300.0, 105.09
59301.0, 104.69
59302.0, 104.61
59303.0, 104.86
59304.0, 105.05
59305.0, 105.43
59306.0, 105.18
59307.0, 105.47
59308.0, 104.26
59309.0, 104.84
59310.0, 105.01
59311.0, 106.01
59312.0, 104.12
59313.0, 105.71
59314.0, 104.64
59315.0, 103.95
59316.0, 105.02
59317.0, 104.85
59318.0, 105.83
59319.0, 105.94
59320.0, 105.48
59321.0, 104.61
59322.0, 105.42
59323.0, 104.46
59324.0, 106.65
59325.0, 110.80
59326.0, 114.05
59327.0, 116.00
59328.0, 119.44
59329.0, 117.53
59330.0, 111.58
59331.0, 108.20
59332.0, 108.28
59333.0, 112.23
59334.0, 113.59
59335.0, 111.71
59336.0, 109.84
59337.0, 113.46
59338.0, 112.96
59339.0, 111.36
59340.0, 115.61
59341.0, 117.57
59342.0, 118.28
59343.0, 117.95
59344.0, 116.44
59345.0, 112.55
59346.0, 112.56
59347.0, 111.31
59348.0, 109.59
59349.0, 110.04
59350.0, 112.82
59351.0, 110.29
59352.0, 107.59
59353.0, 107.01
59354.0, -9999.00
59355.0, -9999.00
59356.0, -9999.00
59357.0, -9999.00
59358.0, -9999.00
59359.0, -9999.00
59360.0, -9999.00
59361.0, -9999.00
59362.0, -9999.00
59363.0, -9999.00
59364.0, -9999.00
59365.0, -9999.00
59366.0, -9999.00
59367.0, -9999.00
59368.0, -9999.00
59369.0, -9999.00
59370.0, -9999.00
59371.0, -9999.00
59372.0, -9999.00
59373.0, -9999.00
59374.0, -9999.00
59375.0, -9999.00
59376.0, -9999.00
59377.0, -9999.00
59378.0, -9999.00
59379.0, -9999.00
59380.0, 104.13
59381.0, 105.60
59382.0, 105.52
59383.0, 105.61
59384.0, 105.48
59385.0, 105.38
59386.0, 105.63
59387.0, 105.59
59388.0, 106.35
